Step    T(K)      KE(kJ)        PE(kJ)       TotE(kJ)
     0      0.153  6.93608e-01 -1.63103e+03 -1.63034e+03
    10      0.490  2.21787e+00 -1.63256e+03 -1.63034e+03
    20      1.351  6.11674e+00 -1.63646e+03 -1.63034e+03
    30      2.664  1.20601e+01 -1.64240e+03 -1.63034e+03
    40      4.330  1.96010e+01 -1.64994e+03 -1.63034e+03
    50      6.243  2.82637e+01 -1.65861e+03 -1.63034e+03
    60      8.309  3.76188e+01 -1.66796e+03 -1.63034e+03
    70     10.454  4.73295e+01 -1.67755e+03 -1.63022e+03
    80     12.627  5.71640e+01 -1.68729e+03 -1.63012e+03
    90     14.797  6.69890e+01 -1.69615e+03 -1.62916e+03
   100     16.948  7.67260e+01 -1.70560e+03 -1.62888e+03
   110     19.071  8.63407e+01 -1.71245e+03 -1.62611e+03
   120     21.172  9.58525e+01 -1.71684e+03 -1.62099e+03
   130     23.240  1.05212e+02 -1.72485e+03 -1.61964e+03
   140     25.258  1.14350e+02 -1.73361e+03 -1.61926e+03
   150     27.217  1.23216e+02 -1.74167e+03 -1.61846e+03
   160     29.105  1.31763e+02 -1.74829e+03 -1.61653e+03
   170     30.907  1.39923e+02 -1.75543e+03 -1.61550e+03
   180     32.603  1.47603e+02 -1.76194e+03 -1.61434e+03
   190     34.178  1.54733e+02 -1.76644e+03 -1.61171e+03
   200     35.618  1.61251e+02 -1.77055e+03 -1.60930e+03
   210     36.906  1.67080e+02 -1.77506e+03 -1.60798e+03
   220     38.030  1.72169e+02 -1.77908e+03 -1.60691e+03
   230     38.986  1.76496e+02 -1.78204e+03 -1.60555e+03
   240     39.775  1.80072e+02 -1.78419e+03 -1.60412e+03
   250     40.407  1.82930e+02 -1.78550e+03 -1.60257e+03
   260     40.891  1.85123e+02 -1.78609e+03 -1.60097e+03
   270     41.244  1.86720e+02 -1.78606e+03 -1.59934e+03
   280     41.481  1.87792e+02 -1.78555e+03 -1.59775e+03
   290     41.616  1.88406e+02 -1.78466e+03 -1.59625e+03
   300     41.664  1.88622e+02 -1.78333e+03 -1.59470e+03
   310     41.635  1.88491e+02 -1.78137e+03 -1.59288e+03
   320     41.538  1.88050e+02 -1.77910e+03 -1.59105e+03
   330     41.376  1.87320e+02 -1.77630e+03 -1.58898e+03
   340     41.154  1.86315e+02 -1.77353e+03 -1.58721e+03
   350     40.875  1.85051e+02 -1.77056e+03 -1.58551e+03
   360     40.548  1.83571e+02 -1.76719e+03 -1.58362e+03
   370     40.198  1.81985e+02 -1.76434e+03 -1.58235e+03
   380     39.871  1.80504e+02 -1.76169e+03 -1.58119e+03
   390     39.635  1.79437e+02 -1.75938e+03 -1.57994e+03
   400     39.566  1.79125e+02 -1.75775e+03 -1.57862e+03
   410     39.722  1.79829e+02 -1.75748e+03 -1.57766e+03
   420     40.122  1.81642e+02 -1.75839e+03 -1.57675e+03
   430     40.756  1.84511e+02 -1.76042e+03 -1.57591e+03
   440     41.600  1.88335e+02 -1.76352e+03 -1.57519e+03
   450     42.642  1.93049e+02 -1.76755e+03 -1.57450e+03
   460     43.880  1.98656e+02 -1.77266e+03 -1.57400e+03
   470     45.323  2.05189e+02 -1.77895e+03 -1.57376e+03
   480     46.982  2.12700e+02 -1.78624e+03 -1.57354e+03
   490     48.882  2.21301e+02 -1.79430e+03 -1.57300e+03
   500     51.073  2.31219e+02 -1.80418e+03 -1.57296e+03
   510     53.636  2.42821e+02 -1.81544e+03 -1.57262e+03
   520     56.648  2.56456e+02 -1.82887e+03 -1.57242e+03
   530     60.132  2.72232e+02 -1.84461e+03 -1.57238e+03
   540     64.037  2.89912e+02 -1.86219e+03 -1.57228e+03
   550     68.256  3.09010e+02 -1.88098e+03 -1.57197e+03
   560     72.673  3.29009e+02 -1.90114e+03 -1.57214e+03
   570     77.209  3.49541e+02 -1.92200e+03 -1.57246e+03
   580     81.842  3.70518e+02 -1.94318e+03 -1.57266e+03
   590     86.626  3.92176e+02 -1.96509e+03 -1.57292e+03
   600     91.655  4.14944e+02 -1.98802e+03 -1.57308e+03
   610     96.999  4.39138e+02 -2.01224e+03 -1.57310e+03
   620    102.627  4.64614e+02 -2.03777e+03 -1.57316e+03
   630    108.390  4.90707e+02 -2.06383e+03 -1.57312e+03
   640    114.099  5.16553e+02 -2.08951e+03 -1.57296e+03
   650    119.600  5.41455e+02 -2.11405e+03 -1.57260e+03
   660    124.803  5.65011e+02 -2.13757e+03 -1.57256e+03
   670    129.668  5.87036e+02 -2.15946e+03 -1.57242e+03
   680    134.156  6.07354e+02 -2.17955e+03 -1.57220e+03
   690    138.171  6.25530e+02 -2.19711e+03 -1.57158e+03
   700    141.516  6.40674e+02 -2.21189e+03 -1.57122e+03
   710    143.940  6.51648e+02 -2.22238e+03 -1.57074e+03
   720    145.299  6.57802e+02 -2.22802e+03 -1.57021e+03
   730    145.711  6.59664e+02 -2.22964e+03 -1.56997e+03
   740    145.494  6.58684e+02 -2.22851e+03 -1.56983e+03
   750    144.955  6.56244e+02 -2.22591e+03 -1.56967e+03
   760    144.293  6.53249e+02 -2.22256e+03 -1.56931e+03
   770    143.649  6.50331e+02 -2.21936e+03 -1.56903e+03
   780    143.106  6.47873e+02 -2.21650e+03 -1.56863e+03
   790    142.650  6.45808e+02 -2.21403e+03 -1.56822e+03
   800    142.205  6.43794e+02 -2.21116e+03 -1.56736e+03
   810    141.723  6.41610e+02 -2.20857e+03 -1.56696e+03
   820    141.174  6.39125e+02 -2.20576e+03 -1.56664e+03
   830    140.501  6.36078e+02 -2.20258e+03 -1.56650e+03
   840    139.612  6.32056e+02 -2.19811e+03 -1.56606e+03
   850    138.397  6.26553e+02 -2.19227e+03 -1.56572e+03
   860    136.761  6.19149e+02 -2.18449e+03 -1.56534e+03
   870    134.721  6.09911e+02 -2.17503e+03 -1.56511e+03
   880    132.527  5.99980e+02 -2.16495e+03 -1.56497e+03
   890    130.692  5.91670e+02 -2.15652e+03 -1.56485e+03
   900    129.665  5.87021e+02 -2.15117e+03 -1.56415e+03
   910    129.382  5.85740e+02 -2.14935e+03 -1.56361e+03
   920    129.396  5.85807e+02 -2.14948e+03 -1.56367e+03
   930    129.477  5.86174e+02 -2.14972e+03 -1.56355e+03
   940    129.751  5.87414e+02 -2.15072e+03 -1.56331e+03
   950    130.369  5.90210e+02 -2.15350e+03 -1.56329e+03
   960    131.282  5.94342e+02 -2.15735e+03 -1.56301e+03
   970    132.342  5.99140e+02 -2.16195e+03 -1.56281e+03
   980    133.385  6.03865e+02 -2.16661e+03 -1.56275e+03
   990    134.157  6.07359e+02 -2.17017e+03 -1.56281e+03
  1000    134.317  6.08083e+02 -2.17093e+03 -1.56285e+03
  1010    133.670  6.05152e+02 -2.16800e+03 -1.56285e+03
  1020    132.327  5.99073e+02 -2.16194e+03 -1.56287e+03
  1030    130.601  5.91260e+02 -2.15408e+03 -1.56282e+03
  1040    128.817  5.83184e+02 -2.14561e+03 -1.56242e+03
  1050    127.232  5.76008e+02 -2.13811e+03 -1.56210e+03
  1060    126.050  5.70658e+02 -2.13278e+03 -1.56212e+03
  1070    125.430  5.67851e+02 -2.12959e+03 -1.56174e+03
  1080    125.455  5.67965e+02 -2.12902e+03 -1.56106e+03
  1090    126.100  5.70884e+02 -2.13182e+03 -1.56094e+03
  1100    127.233  5.76014e+02 -2.13699e+03 -1.56098e+03
  1110    128.610  5.82245e+02 -2.14316e+03 -1.56092e+03
  1120    129.926  5.88203e+02 -2.14922e+03 -1.56102e+03
  1130    130.924  5.92723e+02 -2.15344e+03 -1.56072e+03
  1140    131.391  5.94836e+02 -2.15568e+03 -1.56084e+03
  1150    131.123  5.93625e+02 -2.15440e+03 -1.56078e+03
  1160    130.140  5.89173e+02 -2.14993e+03 -1.56076e+03
  1170    128.811  5.83156e+02 -2.14363e+03 -1.56047e+03
  1180    127.643  5.77868e+02 -2.13832e+03 -1.56045e+03
  1190    127.014  5.75020e+02 -2.13527e+03 -1.56025e+03
  1200    127.058  5.75222e+02 -2.13567e+03 -1.56045e+03
  1210    127.597  5.77659e+02 -2.13821e+03 -1.56055e+03
  1220    128.201  5.80396e+02 -2.14109e+03 -1.56070e+03
  1230    128.440  5.81475e+02 -2.14207e+03 -1.56060e+03
  1240    128.117  5.80015e+02 -2.14053e+03 -1.56052e+03
  1250    127.371  5.76636e+02 -2.13709e+03 -1.56045e+03
  1260    126.573  5.73023e+02 -2.13360e+03 -1.56057e+03
  1270    126.041  5.70617e+02 -2.13125e+03 -1.56063e+03
  1280    125.775  5.69410e+02 -2.13019e+03 -1.56078e+03
  1290    125.491  5.68127e+02 -2.12862e+03 -1.56050e+03
  1300    124.917  5.65529e+02 -2.12606e+03 -1.56054e+03
  1310    123.998  5.61366e+02 -2.12184e+03 -1.56047e+03
  1320    122.947  5.56609e+02 -2.11670e+03 -1.56009e+03
  1330    122.154  5.53017e+02 -2.11311e+03 -1.56009e+03
  1340    121.908  5.51907e+02 -2.11166e+03 -1.55975e+03
  1350    122.236  5.53390e+02 -2.11308e+03 -1.55969e+03
  1360    123.045  5.57053e+02 -2.11632e+03 -1.55927e+03
  1370    124.248  5.62499e+02 -2.12141e+03 -1.55891e+03
  1380    125.698  5.69061e+02 -2.12807e+03 -1.55901e+03
  1390    127.137  5.75576e+02 -2.13468e+03 -1.55911e+03
  1400    128.247  5.80605e+02 -2.13988e+03 -1.55927e+03
  1410    128.747  5.82866e+02 -2.14210e+03 -1.55923e+03
  1420    128.484  5.81676e+02 -2.14085e+03 -1.55917e+03
  1430    127.515  5.77287e+02 -2.13640e+03 -1.55911e+03
  1440    126.116  5.70957e+02 -2.12952e+03 -1.55857e+03
  1450    124.690  5.64498e+02 -2.12296e+03 -1.55847e+03
  1460    123.542  5.59302e+02 -2.11775e+03 -1.55844e+03
  1470    122.726  5.55609e+02 -2.11409e+03 -1.55849e+03
  1480    122.123  5.52878e+02 -2.11132e+03 -1.55845e+03
  1490    121.663  5.50795e+02 -2.10934e+03 -1.55855e+03
  1500    121.330  5.49286e+02 -2.10787e+03 -1.55859e+03
  1510    120.954  5.47588e+02 -2.10628e+03 -1.55869e+03
  1520    120.232  5.44319e+02 -2.10317e+03 -1.55885e+03
  1530    119.067  5.39042e+02 -2.09781e+03 -1.55877e+03
  1540    117.757  5.33111e+02 -2.09202e+03 -1.55891e+03
  1550    116.796  5.28763e+02 -2.08771e+03 -1.55895e+03
  1560    116.529  5.27555e+02 -2.08668e+03 -1.55913e+03
  1570    116.971  5.29555e+02 -2.08822e+03 -1.55867e+03
  1580    117.916  5.33834e+02 -2.09226e+03 -1.55843e+03
  1590    119.130  5.39327e+02 -2.09781e+03 -1.55849e+03
  1600    120.385  5.45010e+02 -2.10348e+03 -1.55847e+03
  1610    121.404  5.49623e+02 -2.10779e+03 -1.55817e+03
  1620    121.895  5.51847e+02 -2.11005e+03 -1.55821e+03
  1630    121.707  5.50993e+02 -2.10886e+03 -1.55787e+03
  1640    120.916  5.47415e+02 -2.10512e+03 -1.55770e+03
  1650    119.797  5.42349e+02 -2.10031e+03 -1.55796e+03
  1660    118.718  5.37462e+02 -2.09516e+03 -1.55770e+03
  1670    118.013  5.34273e+02 -2.09197e+03 -1.55770e+03
  1680    117.863  5.33592e+02 -2.09111e+03 -1.55752e+03
  1690    118.202  5.35128e+02 -2.09285e+03 -1.55772e+03
  1700    118.747  5.37596e+02 -2.09536e+03 -1.55776e+03
  1710    119.131  5.39331e+02 -2.09671e+03 -1.55738e+03
  1720    119.053  5.38981e+02 -2.09626e+03 -1.55728e+03
  1730    118.397  5.36010e+02 -2.09335e+03 -1.55734e+03
  1740    117.255  5.30841e+02 -2.08814e+03 -1.55730e+03
  1750    115.883  5.24627e+02 -2.08179e+03 -1.55716e+03
  1760    114.592  5.18785e+02 -2.07603e+03 -1.55724e+03
  1770    113.648  5.14509e+02 -2.07145e+03 -1.55694e+03
  1780    113.202  5.12489e+02 -2.06955e+03 -1.55706e+03
  1790    113.270  5.12800e+02 -2.06978e+03 -1.55698e+03
  1800    113.731  5.14887e+02 -2.07201e+03 -1.55712e+03
  1810    114.359  5.17730e+02 -2.07477e+03 -1.55704e+03
  1820    114.916  5.20251e+02 -2.07749e+03 -1.55724e+03
  1830    115.236  5.21698e+02 -2.07870e+03 -1.55700e+03
  1840    115.282  5.21909e+02 -2.07905e+03 -1.55714e+03
  1850    115.163  5.21370e+02 -2.07861e+03 -1.55724e+03
  1860    115.077  5.20981e+02 -2.07810e+03 -1.55712e+03
  1870    115.236  5.21700e+02 -2.07874e+03 -1.55704e+03
  1880    115.778  5.24154e+02 -2.08117e+03 -1.55702e+03
  1890    116.665  5.28167e+02 -2.08519e+03 -1.55702e+03
  1900    117.646  5.32610e+02 -2.08953e+03 -1.55692e+03
  1910    118.407  5.36055e+02 -2.09296e+03 -1.55690e+03
  1920    118.730  5.37517e+02 -2.09462e+03 -1.55710e+03
  1930    118.534  5.36630e+02 -2.09329e+03 -1.55666e+03
  1940    117.843  5.33503e+02 -2.08998e+03 -1.55648e+03
  1950    116.773  5.28660e+02 -2.08506e+03 -1.55640e+03
  1960    115.510  5.22939e+02 -2.07970e+03 -1.55676e+03
  1970    114.257  5.17266e+02 -2.07384e+03 -1.55658e+03
  1980    113.173  5.12360e+02 -2.06894e+03 -1.55658e+03
  1990    112.359  5.08672e+02 -2.06519e+03 -1.55652e+03
  2000    111.896  5.06577e+02 -2.06311e+03 -1.55654e+03
  2010    111.879  5.06501e+02 -2.06288e+03 -1.55638e+03
  2020    112.354  5.08651e+02 -2.06519e+03 -1.55654e+03
  2030    113.247  5.12693e+02 -2.06913e+03 -1.55644e+03
  2040    114.380  5.17822e+02 -2.07418e+03 -1.55636e+03
  2050    115.563  5.23180e+02 -2.07916e+03 -1.55598e+03
  2060    116.649  5.28096e+02 -2.08393e+03 -1.55584e+03
  2070    117.522  5.32049e+02 -2.08787e+03 -1.55582e+03
  2080    118.111  5.34715e+02 -2.09049e+03 -1.55578e+03
  2090    118.415  5.36092e+02 -2.09181e+03 -1.55572e+03
  2100    118.482  5.36394e+02 -2.09213e+03 -1.55574e+03
  2110    118.379  5.35930e+02 -2.09169e+03 -1.55576e+03
  2120    118.172  5.34993e+02 -2.09075e+03 -1.55576e+03
  2130    117.895  5.33739e+02 -2.08931e+03 -1.55558e+03
  2140    117.555  5.32199e+02 -2.08791e+03 -1.55572e+03
  2150    117.151  5.30368e+02 -2.08600e+03 -1.55564e+03
  2160    116.684  5.28254e+02 -2.08395e+03 -1.55570e+03
  2170    116.186  5.26002e+02 -2.08146e+03 -1.55545e+03
  2180    115.727  5.23922e+02 -2.07938e+03 -1.55545e+03
  2190    115.362  5.22268e+02 -2.07782e+03 -1.55555e+03
  2200    115.073  5.20960e+02 -2.07647e+03 -1.55552e+03
  2210    114.785  5.19659e+02 -2.07534e+03 -1.55568e+03
  2220    114.447  5.18127e+02 -2.07396e+03 -1.55584e+03
  2230    114.064  5.16392e+02 -2.07223e+03 -1.55584e+03
  2240    113.702  5.14753e+02 -2.07065e+03 -1.55590e+03
  2250    113.471  5.13708e+02 -2.06985e+03 -1.55614e+03
  2260    113.486  5.13775e+02 -2.06977e+03 -1.55600e+03
  2270    113.771  5.15065e+02 -2.07092e+03 -1.55586e+03
  2280    114.225  5.17123e+02 -2.07308e+03 -1.55596e+03
  2290    114.700  5.19275e+02 -2.07539e+03 -1.55612e+03
  2300    115.108  5.21119e+02 -2.07724e+03 -1.55612e+03
  2310    115.445  5.22644e+02 -2.07900e+03 -1.55636e+03
  2320    115.719  5.23888e+02 -2.08035e+03 -1.55646e+03
  2330    115.864  5.24544e+02 -2.08102e+03 -1.55648e+03
  2340    115.766  5.24099e+02 -2.08078e+03 -1.55668e+03
  2350    115.415  5.22511e+02 -2.07893e+03 -1.55642e+03
  2360    114.984  5.20559e+02 -2.07700e+03 -1.55644e+03
  2370    114.735  5.19432e+02 -2.07585e+03 -1.55642e+03
  2380    114.865  5.20022e+02 -2.07668e+03 -1.55666e+03
  2390    115.398  5.22432e+02 -2.07907e+03 -1.55664e+03
  2400    116.200  5.26063e+02 -2.08264e+03 -1.55658e+03
  2410    117.070  5.30004e+02 -2.08654e+03 -1.55654e+03
  2420    117.821  5.33404e+02 -2.08982e+03 -1.55642e+03
  2430    118.341  5.35757e+02 -2.09224e+03 -1.55648e+03
  2440    118.631  5.37071e+02 -2.09359e+03 -1.55652e+03
  2450    118.748  5.37598e+02 -2.09412e+03 -1.55652e+03
  2460    118.723  5.37487e+02 -2.09425e+03 -1.55676e+03
  2470    118.553  5.36716e+02 -2.09320e+03 -1.55648e+03
  2480    118.233  5.35267e+02 -2.09187e+03 -1.55660e+03
  2490    117.779  5.33214e+02 -2.08983e+03 -1.55662e+03
  2500    117.222  5.30693e+02 -2.08715e+03 -1.55646e+03
  2510    116.615  5.27945e+02 -2.08442e+03 -1.55648e+03
  2520    116.054  5.25404e+02 -2.08208e+03 -1.55668e+03
  2530    115.662  5.23629e+02 -2.08017e+03 -1.55654e+03
  2540    115.543  5.23090e+02 -2.07939e+03 -1.55630e+03
  2550    115.707  5.23834e+02 -2.08007e+03 -1.55624e+03
  2560    116.027  5.25281e+02 -2.08182e+03 -1.55654e+03
  2570    116.288  5.26464e+02 -2.08268e+03 -1.55622e+03
  2580    116.320  5.26607e+02 -2.08303e+03 -1.55642e+03
  2590    116.100  5.25611e+02 -2.08189e+03 -1.55628e+03
  2600    115.747  5.24015e+02 -2.08047e+03 -1.55646e+03
  2610    115.418  5.22524e+02 -2.07894e+03 -1.55642e+03
  2620    115.220  5.21626e+02 -2.07766e+03 -1.55604e+03
  2630    115.206  5.21563e+02 -2.07740e+03 -1.55584e+03
  2640    115.397  5.22430e+02 -2.07841e+03 -1.55598e+03
  2650    115.795  5.24232e+02 -2.08023e+03 -1.55600e+03
  2660    116.387  5.26909e+02 -2.08329e+03 -1.55638e+03
  2670    117.131  5.30280e+02 -2.08668e+03 -1.55640e+03
  2680    117.945  5.33965e+02 -2.09043e+03 -1.55646e+03
  2690    118.671  5.37250e+02 -2.09379e+03 -1.55654e+03
  2700    119.084  5.39120e+02 -2.09600e+03 -1.55688e+03
  2710    119.029  5.38871e+02 -2.09575e+03 -1.55688e+03
  2720    118.589  5.36880e+02 -2.09354e+03 -1.55666e+03
  2730    118.079  5.34571e+02 -2.09121e+03 -1.55664e+03
  2740    117.845  5.33510e+02 -2.09043e+03 -1.55692e+03
  2750    118.055  5.34461e+02 -2.09144e+03 -1.55698e+03
  2760    118.626  5.37045e+02 -2.09407e+03 -1.55702e+03
  2770    119.305  5.40122e+02 -2.09706e+03 -1.55694e+03
  2780    119.838  5.42531e+02 -2.09939e+03 -1.55686e+03
  2790    120.054  5.43511e+02 -2.10025e+03 -1.55674e+03
  2800    119.878  5.42716e+02 -2.09946e+03 -1.55674e+03
  2810    119.294  5.40071e+02 -2.09695e+03 -1.55688e+03
  2820    118.339  5.35747e+02 -2.09253e+03 -1.55678e+03
  2830    117.124  5.30246e+02 -2.08681e+03 -1.55656e+03
  2840    115.856  5.24507e+02 -2.08113e+03 -1.55662e+03
  2850    114.835  5.19883e+02 -2.07628e+03 -1.55640e+03
  2860    114.331  5.17602e+02 -2.07402e+03 -1.55642e+03
  2870    114.415  5.17981e+02 -2.07458e+03 -1.55660e+03
  2880    114.850  5.19950e+02 -2.07639e+03 -1.55644e+03
  2890    115.186  5.21473e+02 -2.07789e+03 -1.55642e+03
  2900    115.058  5.20895e+02 -2.07720e+03 -1.55630e+03
  2910    114.418  5.17996e+02 -2.07424e+03 -1.55624e+03
  2920    113.512  5.13896e+02 -2.06997e+03 -1.55608e+03
  2930    112.703  5.10231e+02 -2.06605e+03 -1.55582e+03
  2940    112.280  5.08319e+02 -2.06426e+03 -1.55594e+03
  2950    112.390  5.08813e+02 -2.06471e+03 -1.55590e+03
  2960    113.013  5.11635e+02 -2.06763e+03 -1.55600e+03
  2970    113.971  5.15971e+02 -2.07193e+03 -1.55596e+03
  2980    114.960  5.20450e+02 -2.07653e+03 -1.55608e+03
  2990    115.685  5.23731e+02 -2.07969e+03 -1.55596e+03
  3000    115.971  5.25027e+02 -2.08081e+03 -1.55578e+03
  3010    115.807  5.24286e+02 -2.07998e+03 -1.55570e+03
  3020    115.305  5.22012e+02 -2.07757e+03 -1.55556e+03
  3030    114.634  5.18972e+02 -2.07451e+03 -1.55553e+03
  3040    113.966  5.15949e+02 -2.07140e+03 -1.55545e+03
  3050    113.450  5.13611e+02 -2.06949e+03 -1.55588e+03
  3060    113.194  5.12456e+02 -2.06851e+03 -1.55606e+03
  3070    113.244  5.12679e+02 -2.06845e+03 -1.55578e+03
  3080    113.562  5.14120e+02 -2.07014e+03 -1.55602e+03
  3090    114.054  5.16348e+02 -2.07244e+03 -1.55610e+03
  3100    114.605  5.18844e+02 -2.07468e+03 -1.55584e+03
  3110    115.123  5.21187e+02 -2.07708e+03 -1.55590e+03
  3120    115.550  5.23121e+02 -2.07896e+03 -1.55584e+03
  3130    115.854  5.24497e+02 -2.08019e+03 -1.55570e+03
  3140    116.041  5.25343e+02 -2.08110e+03 -1.55576e+03
  3150    116.168  5.25917e+02 -2.08173e+03 -1.55582e+03
  3160    116.329  5.26649e+02 -2.08242e+03 -1.55578e+03
  3170    116.606  5.27902e+02 -2.08370e+03 -1.55580e+03
  3180    116.993  5.29655e+02 -2.08519e+03 -1.55554e+03
  3190    117.329  5.31175e+02 -2.08689e+03 -1.55572e+03
  3200    117.333  5.31192e+02 -2.08719e+03 -1.55600e+03
  3210    116.822  5.28877e+02 -2.08502e+03 -1.55614e+03
  3220    115.968  5.25015e+02 -2.08123e+03 -1.55622e+03
  3230    115.130  5.21219e+02 -2.07732e+03 -1.55610e+03
  3240    114.424  5.18024e+02 -2.07404e+03 -1.55602e+03
  3250    113.808  5.15232e+02 -2.07105e+03 -1.55582e+03
  3260    113.344  5.13132e+02 -2.06915e+03 -1.55602e+03
  3270    113.178  5.12381e+02 -2.06820e+03 -1.55582e+03
  3280    113.351  5.13166e+02 -2.06872e+03 -1.55555e+03
  3290    113.739  5.14924e+02 -2.07070e+03 -1.55578e+03
  3300    114.190  5.16966e+02 -2.07278e+03 -1.55582e+03
  3310    114.625  5.18935e+02 -2.07465e+03 -1.55572e+03
  3320    114.966  5.20478e+02 -2.07611e+03 -1.55564e+03
  3330    115.061  5.20906e+02 -2.07662e+03 -1.55572e+03
  3340    114.746  5.19479e+02 -2.07522e+03 -1.55574e+03
  3350    113.941  5.15835e+02 -2.07153e+03 -1.55570e+03
  3360    112.721  5.10312e+02 -2.06637e+03 -1.55606e+03
  3370    111.341  5.04066e+02 -2.06016e+03 -1.55610e+03
  3380    110.176  4.98794e+02 -2.05473e+03 -1.55594e+03
  3390    109.569  4.96043e+02 -2.05188e+03 -1.55583e+03
  3400    109.687  4.96579e+02 -2.05233e+03 -1.55575e+03
  3410    110.527  5.00380e+02 -2.05579e+03 -1.55541e+03
  3420    111.975  5.06936e+02 -2.06235e+03 -1.55541e+03
  3430    113.833  5.15349e+02 -2.07066e+03 -1.55531e+03
  3440    115.813  5.24313e+02 -2.07985e+03 -1.55554e+03
  3450    117.568  5.32256e+02 -2.08767e+03 -1.55542e+03
  3460    118.767  5.37683e+02 -2.09338e+03 -1.55570e+03
  3470    119.232  5.39790e+02 -2.09527e+03 -1.55548e+03
  3480    119.103  5.39204e+02 -2.09448e+03 -1.55527e+03
