Step    T(K)      KE(kJ)        PE(kJ)       TotE(kJ)
     0      0.153  6.92845e-01 -1.63103e+03 -1.63034e+03
    10      0.489  2.21233e+00 -1.63255e+03 -1.63034e+03
    20      1.352  6.11914e+00 -1.63646e+03 -1.63034e+03
    30      2.671  1.20904e+01 -1.64243e+03 -1.63034e+03
    40      4.347  1.96803e+01 -1.65002e+03 -1.63034e+03
    50      6.275  2.84085e+01 -1.65875e+03 -1.63034e+03
    60      8.358  3.78366e+01 -1.66818e+03 -1.63034e+03
    70     10.518  4.76171e+01 -1.67788e+03 -1.63026e+03
    80     12.703  5.75090e+01 -1.68769e+03 -1.63018e+03
    90     14.881  6.73716e+01 -1.69653e+03 -1.62916e+03
   100     17.036  7.71260e+01 -1.70592e+03 -1.62880e+03
   110     19.159  8.67376e+01 -1.71286e+03 -1.62613e+03
   120     21.255  9.62271e+01 -1.71693e+03 -1.62071e+03
   130     23.316  1.05555e+02 -1.72510e+03 -1.61954e+03
   140     25.325  1.14654e+02 -1.73381e+03 -1.61916e+03
   150     27.275  1.23482e+02 -1.74184e+03 -1.61836e+03
   160     29.156  1.31994e+02 -1.74862e+03 -1.61663e+03
   170     30.952  1.40128e+02 -1.75533e+03 -1.61520e+03
   180     32.646  1.47794e+02 -1.76203e+03 -1.61424e+03
   190     34.220  1.54921e+02 -1.76659e+03 -1.61167e+03
   200     35.662  1.61450e+02 -1.77067e+03 -1.60922e+03
   210     36.955  1.67303e+02 -1.77502e+03 -1.60771e+03
   220     38.088  1.72433e+02 -1.77898e+03 -1.60655e+03
   230     39.057  1.76819e+02 -1.78204e+03 -1.60522e+03
   240     39.863  1.80469e+02 -1.78425e+03 -1.60378e+03
   250     40.514  1.83418e+02 -1.78555e+03 -1.60213e+03
   260     41.023  1.85721e+02 -1.78627e+03 -1.60055e+03
   270     41.404  1.87445e+02 -1.78645e+03 -1.59900e+03
   280     41.673  1.88661e+02 -1.78575e+03 -1.59709e+03
   290     41.844  1.89436e+02 -1.78476e+03 -1.59533e+03
   300     41.929  1.89823e+02 -1.78352e+03 -1.59370e+03
   310     41.940  1.89872e+02 -1.78154e+03 -1.59167e+03
   320     41.885  1.89622e+02 -1.77961e+03 -1.58999e+03
   330     41.766  1.89086e+02 -1.77734e+03 -1.58826e+03
   340     41.589  1.88285e+02 -1.77490e+03 -1.58661e+03
   350     41.362  1.87254e+02 -1.77222e+03 -1.58497e+03
   360     41.103  1.86081e+02 -1.76968e+03 -1.58360e+03
   370     40.851  1.84940e+02 -1.76718e+03 -1.58224e+03
   380     40.671  1.84126e+02 -1.76528e+03 -1.58115e+03
   390     40.646  1.84013e+02 -1.76432e+03 -1.58031e+03
   400     40.851  1.84942e+02 -1.76400e+03 -1.57906e+03
   410     41.327  1.87096e+02 -1.76521e+03 -1.57812e+03
   420     42.070  1.90460e+02 -1.76753e+03 -1.57707e+03
   430     43.054  1.94915e+02 -1.77101e+03 -1.57609e+03
   440     44.256  2.00357e+02 -1.77587e+03 -1.57551e+03
   450     45.671  2.06761e+02 -1.78185e+03 -1.57509e+03
   460     47.311  2.14187e+02 -1.78887e+03 -1.57469e+03
   470     49.199  2.22734e+02 -1.79706e+03 -1.57432e+03
   480     51.363  2.32533e+02 -1.80652e+03 -1.57398e+03
   490     53.850  2.43790e+02 -1.81723e+03 -1.57344e+03
   500     56.729  2.56826e+02 -1.82986e+03 -1.57304e+03
   510     60.083  2.72007e+02 -1.84501e+03 -1.57300e+03
   520     63.957  2.89548e+02 -1.86243e+03 -1.57288e+03
   530     68.326  3.09328e+02 -1.88197e+03 -1.57264e+03
   540     73.097  3.30928e+02 -1.90365e+03 -1.57272e+03
   550     78.164  3.53864e+02 -1.92644e+03 -1.57258e+03
   560     83.462  3.77851e+02 -1.95047e+03 -1.57262e+03
   570     88.998  4.02912e+02 -1.97541e+03 -1.57250e+03
   580     94.811  4.29233e+02 -2.00161e+03 -1.57238e+03
   590    100.895  4.56773e+02 -2.02931e+03 -1.57254e+03
   600    107.141  4.85052e+02 -2.05741e+03 -1.57236e+03
   610    113.375  5.13273e+02 -2.08601e+03 -1.57274e+03
   620    119.411  5.40601e+02 -2.11320e+03 -1.57260e+03
   630    125.105  5.66377e+02 -2.13880e+03 -1.57242e+03
   640    130.376  5.90240e+02 -2.16258e+03 -1.57234e+03
   650    135.194  6.12053e+02 -2.18433e+03 -1.57228e+03
   660    139.534  6.31703e+02 -2.20346e+03 -1.57176e+03
   670    143.330  6.48886e+02 -2.22038e+03 -1.57150e+03
   680    146.483  6.63159e+02 -2.23412e+03 -1.57096e+03
   690    148.874  6.73988e+02 -2.24450e+03 -1.57052e+03
   700    150.394  6.80867e+02 -2.25090e+03 -1.57003e+03
   710    150.994  6.83586e+02 -2.25298e+03 -1.56939e+03
   720    150.754  6.82495e+02 -2.25108e+03 -1.56859e+03
   730    149.872  6.78505e+02 -2.24677e+03 -1.56827e+03
   740    148.598  6.72735e+02 -2.24062e+03 -1.56788e+03
   750    147.149  6.66177e+02 -2.23362e+03 -1.56744e+03
   760    145.696  6.59597e+02 -2.22680e+03 -1.56720e+03
   770    144.393  6.53699e+02 -2.22062e+03 -1.56692e+03
   780    143.374  6.49085e+02 -2.21588e+03 -1.56680e+03
   790    142.693  6.46005e+02 -2.21216e+03 -1.56616e+03
   800    142.323  6.44327e+02 -2.21024e+03 -1.56592e+03
   810    142.221  6.43866e+02 -2.20942e+03 -1.56555e+03
   820    142.331  6.44362e+02 -2.20970e+03 -1.56533e+03
   830    142.477  6.45024e+02 -2.21020e+03 -1.56517e+03
   840    142.330  6.44361e+02 -2.20924e+03 -1.56487e+03
   850    141.626  6.41173e+02 -2.20579e+03 -1.56461e+03
   860    140.473  6.35953e+02 -2.20024e+03 -1.56429e+03
   870    139.287  6.30582e+02 -2.19465e+03 -1.56407e+03
   880    138.249  6.25882e+02 -2.18983e+03 -1.56395e+03
   890    137.132  6.20826e+02 -2.18462e+03 -1.56379e+03
   900    135.776  6.14689e+02 -2.17864e+03 -1.56395e+03
   910    134.429  6.08589e+02 -2.17250e+03 -1.56391e+03
   920    133.564  6.04673e+02 -2.16816e+03 -1.56349e+03
   930    133.442  6.04120e+02 -2.16751e+03 -1.56339e+03
   940    133.917  6.06273e+02 -2.16952e+03 -1.56325e+03
   950    134.608  6.09403e+02 -2.17257e+03 -1.56317e+03
   960    135.143  6.11824e+02 -2.17485e+03 -1.56303e+03
   970    135.344  6.12733e+02 -2.17554e+03 -1.56281e+03
   980    135.294  6.12507e+02 -2.17559e+03 -1.56309e+03
   990    135.211  6.12130e+02 -2.17504e+03 -1.56291e+03
  1000    135.197  6.12066e+02 -2.17467e+03 -1.56260e+03
  1010    135.070  6.11490e+02 -2.17392e+03 -1.56242e+03
  1020    134.524  6.09020e+02 -2.17114e+03 -1.56212e+03
  1030    133.448  6.04149e+02 -2.16603e+03 -1.56188e+03
  1040    132.064  5.97886e+02 -2.15957e+03 -1.56168e+03
  1050    130.792  5.92125e+02 -2.15346e+03 -1.56134e+03
  1060    129.963  5.88373e+02 -2.14977e+03 -1.56140e+03
  1070    129.602  5.86738e+02 -2.14820e+03 -1.56146e+03
  1080    129.453  5.86062e+02 -2.14716e+03 -1.56110e+03
  1090    129.265  5.85211e+02 -2.14607e+03 -1.56086e+03
  1100    128.972  5.83885e+02 -2.14458e+03 -1.56070e+03
  1110    128.565  5.82043e+02 -2.14258e+03 -1.56054e+03
  1120    127.996  5.79465e+02 -2.13972e+03 -1.56026e+03
  1130    127.291  5.76273e+02 -2.13665e+03 -1.56038e+03
  1140    126.592  5.73111e+02 -2.13335e+03 -1.56023e+03
  1150    126.009  5.70473e+02 -2.13065e+03 -1.56017e+03
  1160    125.510  5.68212e+02 -2.12829e+03 -1.56007e+03
  1170    124.949  5.65671e+02 -2.12561e+03 -1.55993e+03
  1180    124.206  5.62307e+02 -2.12212e+03 -1.55981e+03
  1190    123.298  5.58196e+02 -2.11769e+03 -1.55949e+03
  1200    122.376  5.54024e+02 -2.11382e+03 -1.55979e+03
  1210    121.619  5.50595e+02 -2.11055e+03 -1.55995e+03
  1220    121.153  5.48489e+02 -2.10838e+03 -1.55989e+03
  1230    121.054  5.48037e+02 -2.10781e+03 -1.55977e+03
  1240    121.284  5.49079e+02 -2.10861e+03 -1.55953e+03
  1250    121.673  5.50841e+02 -2.11017e+03 -1.55933e+03
  1260    122.030  5.52459e+02 -2.11179e+03 -1.55933e+03
  1270    122.243  5.53421e+02 -2.11265e+03 -1.55923e+03
  1280    122.283  5.53603e+02 -2.11281e+03 -1.55921e+03
  1290    122.190  5.53183e+02 -2.11233e+03 -1.55915e+03
  1300    122.035  5.52479e+02 -2.11127e+03 -1.55879e+03
  1310    121.907  5.51900e+02 -2.11085e+03 -1.55895e+03
  1320    121.943  5.52063e+02 -2.11109e+03 -1.55903e+03
  1330    122.305  5.53701e+02 -2.11265e+03 -1.55895e+03
  1340    123.036  5.57010e+02 -2.11616e+03 -1.55915e+03
  1350    123.917  5.61001e+02 -2.12021e+03 -1.55921e+03
  1360    124.624  5.64202e+02 -2.12339e+03 -1.55919e+03
  1370    124.994  5.65877e+02 -2.12499e+03 -1.55911e+03
  1380    125.041  5.66091e+02 -2.12510e+03 -1.55901e+03
  1390    124.805  5.65020e+02 -2.12387e+03 -1.55885e+03
  1400    124.251  5.62512e+02 -2.12146e+03 -1.55895e+03
  1410    123.324  5.58315e+02 -2.11743e+03 -1.55911e+03
  1420    122.074  5.52658e+02 -2.11187e+03 -1.55921e+03
  1430    120.728  5.46563e+02 -2.10589e+03 -1.55933e+03
  1440    119.577  5.41352e+02 -2.10072e+03 -1.55937e+03
  1450    118.816  5.37906e+02 -2.09734e+03 -1.55943e+03
  1460    118.520  5.36568e+02 -2.09570e+03 -1.55913e+03
  1470    118.736  5.37543e+02 -2.09675e+03 -1.55921e+03
  1480    119.489  5.40952e+02 -2.10034e+03 -1.55939e+03
  1490    120.697  5.46421e+02 -2.10587e+03 -1.55945e+03
  1500    122.109  5.52816e+02 -2.11223e+03 -1.55941e+03
  1510    123.408  5.58697e+02 -2.11805e+03 -1.55935e+03
  1520    124.394  5.63158e+02 -2.12251e+03 -1.55935e+03
  1530    125.031  5.66042e+02 -2.12519e+03 -1.55915e+03
  1540    125.373  5.67591e+02 -2.12656e+03 -1.55897e+03
  1550    125.533  5.68315e+02 -2.12751e+03 -1.55919e+03
  1560    125.669  5.68931e+02 -2.12812e+03 -1.55919e+03
  1570    125.827  5.69645e+02 -2.12898e+03 -1.55933e+03
  1580    125.828  5.69652e+02 -2.12902e+03 -1.55937e+03
  1590    125.426  5.67834e+02 -2.12741e+03 -1.55957e+03
  1600    124.503  5.63653e+02 -2.12305e+03 -1.55939e+03
  1610    123.114  5.57367e+02 -2.11664e+03 -1.55927e+03
  1620    121.458  5.49866e+02 -2.10906e+03 -1.55919e+03
  1630    119.814  5.42426e+02 -2.10129e+03 -1.55887e+03
  1640    118.481  5.36391e+02 -2.09520e+03 -1.55881e+03
  1650    117.691  5.32815e+02 -2.09176e+03 -1.55895e+03
  1660    117.546  5.32158e+02 -2.09117e+03 -1.55901e+03
  1670    117.984  5.34138e+02 -2.09313e+03 -1.55899e+03
  1680    118.871  5.38154e+02 -2.09696e+03 -1.55881e+03
  1690    120.084  5.43647e+02 -2.10225e+03 -1.55861e+03
  1700    121.437  5.49772e+02 -2.10830e+03 -1.55853e+03
  1710    122.608  5.55073e+02 -2.11364e+03 -1.55857e+03
  1720    123.271  5.58074e+02 -2.11658e+03 -1.55851e+03
  1730    123.290  5.58160e+02 -2.11659e+03 -1.55843e+03
  1740    122.765  5.55783e+02 -2.11451e+03 -1.55873e+03
  1750    121.845  5.51619e+02 -2.11019e+03 -1.55857e+03
  1760    120.558  5.45792e+02 -2.10424e+03 -1.55845e+03
  1770    118.924  5.38398e+02 -2.09711e+03 -1.55871e+03
  1780    117.148  5.30354e+02 -2.08900e+03 -1.55865e+03
  1790    115.595  5.23322e+02 -2.08189e+03 -1.55857e+03
  1800    114.628  5.18948e+02 -2.07759e+03 -1.55865e+03
  1810    114.497  5.18352e+02 -2.07720e+03 -1.55885e+03
  1820    115.291  5.21946e+02 -2.08061e+03 -1.55867e+03
  1830    116.879  5.29135e+02 -2.08776e+03 -1.55863e+03
  1840    118.920  5.38377e+02 -2.09700e+03 -1.55863e+03
  1850    121.018  5.47874e+02 -2.10642e+03 -1.55855e+03
  1860    122.888  5.56343e+02 -2.11477e+03 -1.55843e+03
  1870    124.396  5.63167e+02 -2.12119e+03 -1.55803e+03
  1880    125.492  5.68130e+02 -2.12590e+03 -1.55776e+03
  1890    126.160  5.71153e+02 -2.12874e+03 -1.55758e+03
  1900    126.402  5.72252e+02 -2.12988e+03 -1.55762e+03
  1910    126.266  5.71637e+02 -2.12952e+03 -1.55788e+03
  1920    125.834  5.69677e+02 -2.12754e+03 -1.55786e+03
  1930    125.187  5.66751e+02 -2.12439e+03 -1.55764e+03
  1940    124.369  5.63048e+02 -2.12061e+03 -1.55756e+03
  1950    123.385  5.58593e+02 -2.11585e+03 -1.55726e+03
  1960    122.258  5.53489e+02 -2.11059e+03 -1.55710e+03
  1970    121.094  5.48220e+02 -2.10530e+03 -1.55708e+03
  1980    120.101  5.43726e+02 -2.10083e+03 -1.55710e+03
  1990    119.493  5.40970e+02 -2.09813e+03 -1.55716e+03
  2000    119.300  5.40099e+02 -2.09724e+03 -1.55714e+03
  2010    119.335  5.40254e+02 -2.09722e+03 -1.55696e+03
  2020    119.353  5.40338e+02 -2.09720e+03 -1.55686e+03
  2030    119.228  5.39773e+02 -2.09683e+03 -1.55706e+03
  2040    118.980  5.38649e+02 -2.09569e+03 -1.55704e+03
  2050    118.696  5.37365e+02 -2.09435e+03 -1.55698e+03
  2060    118.463  5.36310e+02 -2.09327e+03 -1.55696e+03
  2070    118.319  5.35657e+02 -2.09294e+03 -1.55728e+03
  2080    118.244  5.35319e+02 -2.09260e+03 -1.55728e+03
  2090    118.180  5.35026e+02 -2.09231e+03 -1.55728e+03
  2100    118.080  5.34576e+02 -2.09210e+03 -1.55752e+03
  2110    117.956  5.34011e+02 -2.09133e+03 -1.55732e+03
  2120    117.879  5.33663e+02 -2.09084e+03 -1.55718e+03
  2130    117.975  5.34101e+02 -2.09124e+03 -1.55714e+03
  2140    118.281  5.35485e+02 -2.09241e+03 -1.55692e+03
  2150    118.548  5.36694e+02 -2.09352e+03 -1.55682e+03
  2160    118.420  5.36114e+02 -2.09300e+03 -1.55688e+03
  2170    117.769  5.33167e+02 -2.08995e+03 -1.55678e+03
  2180    116.731  5.28468e+02 -2.08523e+03 -1.55676e+03
  2190    115.538  5.23066e+02 -2.07995e+03 -1.55688e+03
  2200    114.399  5.17912e+02 -2.07495e+03 -1.55704e+03
  2210    113.478  5.13741e+02 -2.07096e+03 -1.55722e+03
  2220    112.913  5.11183e+02 -2.06838e+03 -1.55720e+03
  2230    112.788  5.10616e+02 -2.06782e+03 -1.55720e+03
  2240    113.039  5.11754e+02 -2.06871e+03 -1.55696e+03
  2250    113.421  5.13480e+02 -2.07054e+03 -1.55706e+03
  2260    113.612  5.14348e+02 -2.07119e+03 -1.55684e+03
  2270    113.407  5.13419e+02 -2.07012e+03 -1.55670e+03
  2280    112.911  5.11172e+02 -2.06773e+03 -1.55656e+03
  2290    112.655  5.10015e+02 -2.06657e+03 -1.55656e+03
  2300    113.175  5.12370e+02 -2.06865e+03 -1.55628e+03
  2310    114.331  5.17604e+02 -2.07412e+03 -1.55652e+03
  2320    115.604  5.23364e+02 -2.07996e+03 -1.55660e+03
  2330    116.714  5.28392e+02 -2.08481e+03 -1.55642e+03
  2340    117.612  5.32454e+02 -2.08899e+03 -1.55654e+03
  2350    118.298  5.35560e+02 -2.09202e+03 -1.55646e+03
  2360    118.786  5.37773e+02 -2.09461e+03 -1.55684e+03
  2370    119.045  5.38943e+02 -2.09587e+03 -1.55692e+03
  2380    118.913  5.38344e+02 -2.09531e+03 -1.55696e+03
  2390    118.211  5.35166e+02 -2.09189e+03 -1.55672e+03
  2400    117.026  5.29802e+02 -2.08668e+03 -1.55688e+03
  2410    115.784  5.24179e+02 -2.08106e+03 -1.55688e+03
  2420    114.917  5.20257e+02 -2.07730e+03 -1.55704e+03
  2430    114.533  5.18517e+02 -2.07542e+03 -1.55690e+03
  2440    114.442  5.18104e+02 -2.07496e+03 -1.55686e+03
  2450    114.429  5.18046e+02 -2.07477e+03 -1.55672e+03
  2460    114.437  5.18081e+02 -2.07504e+03 -1.55696e+03
  2470    114.545  5.18572e+02 -2.07571e+03 -1.55714e+03
  2480    114.854  5.19971e+02 -2.07711e+03 -1.55714e+03
  2490    115.391  5.22399e+02 -2.07974e+03 -1.55734e+03
  2500    116.099  5.25607e+02 -2.08311e+03 -1.55750e+03
  2510    116.883  5.29155e+02 -2.08652e+03 -1.55736e+03
  2520    117.660  5.32673e+02 -2.08986e+03 -1.55718e+03
  2530    118.396  5.36005e+02 -2.09335e+03 -1.55734e+03
  2540    119.097  5.39180e+02 -2.09670e+03 -1.55752e+03
  2550    119.827  5.42486e+02 -2.09979e+03 -1.55730e+03
  2560    120.689  5.46386e+02 -2.10345e+03 -1.55706e+03
  2570    121.686  5.50900e+02 -2.10786e+03 -1.55696e+03
  2580    122.688  5.55435e+02 -2.11246e+03 -1.55702e+03
  2590    123.579  5.59469e+02 -2.11665e+03 -1.55718e+03
  2600    124.299  5.62730e+02 -2.11991e+03 -1.55718e+03
  2610    124.773  5.64875e+02 -2.12182e+03 -1.55694e+03
  2620    124.934  5.65606e+02 -2.12237e+03 -1.55676e+03
  2630    124.787  5.64938e+02 -2.12162e+03 -1.55668e+03
  2640    124.373  5.63063e+02 -2.11966e+03 -1.55660e+03
  2650    123.739  5.60193e+02 -2.11679e+03 -1.55660e+03
  2660    122.926  5.56513e+02 -2.11341e+03 -1.55690e+03
  2670    121.946  5.52076e+02 -2.10902e+03 -1.55694e+03
  2680    120.725  5.46548e+02 -2.10353e+03 -1.55698e+03
  2690    119.125  5.39304e+02 -2.09627e+03 -1.55696e+03
  2700    117.054  5.29931e+02 -2.08693e+03 -1.55700e+03
  2710    114.607  5.18852e+02 -2.07579e+03 -1.55694e+03
  2720    112.144  5.07703e+02 -2.06452e+03 -1.55682e+03
  2730    110.207  4.98933e+02 -2.05569e+03 -1.55676e+03
  2740    109.249  4.94595e+02 -2.05139e+03 -1.55680e+03
  2750    109.356  4.95078e+02 -2.05176e+03 -1.55668e+03
  2760    110.314  4.99418e+02 -2.05622e+03 -1.55680e+03
  2770    111.841  5.06329e+02 -2.06333e+03 -1.55700e+03
  2780    113.620  5.14383e+02 -2.07134e+03 -1.55696e+03
  2790    115.331  5.22128e+02 -2.07903e+03 -1.55690e+03
  2800    116.706  5.28354e+02 -2.08550e+03 -1.55714e+03
  2810    117.530  5.32083e+02 -2.08945e+03 -1.55736e+03
  2820    117.686  5.32789e+02 -2.09023e+03 -1.55744e+03
  2830    117.302  5.31053e+02 -2.08821e+03 -1.55716e+03
  2840    116.812  5.28833e+02 -2.08641e+03 -1.55758e+03
  2850    116.729  5.28457e+02 -2.08602e+03 -1.55756e+03
  2860    117.242  5.30779e+02 -2.08844e+03 -1.55766e+03
  2870    118.096  5.34648e+02 -2.09225e+03 -1.55760e+03
  2880    118.891  5.38244e+02 -2.09591e+03 -1.55766e+03
  2890    119.379  5.40457e+02 -2.09808e+03 -1.55762e+03
  2900    119.547  5.41216e+02 -2.09902e+03 -1.55780e+03
  2910    119.509  5.41044e+02 -2.09899e+03 -1.55794e+03
  2920    119.387  5.40491e+02 -2.09853e+03 -1.55804e+03
  2930    119.232  5.39790e+02 -2.09797e+03 -1.55818e+03
  2940    119.017  5.38817e+02 -2.09692e+03 -1.55810e+03
  2950    118.675  5.37268e+02 -2.09503e+03 -1.55776e+03
  2960    118.161  5.34941e+02 -2.09272e+03 -1.55778e+03
  2970    117.496  5.31930e+02 -2.08985e+03 -1.55792e+03
  2980    116.760  5.28598e+02 -2.08656e+03 -1.55796e+03
  2990    116.044  5.25359e+02 -2.08336e+03 -1.55800e+03
  3000    115.391  5.22403e+02 -2.07995e+03 -1.55754e+03
  3010    114.786  5.19661e+02 -2.07738e+03 -1.55772e+03
  3020    114.218  5.17090e+02 -2.07469e+03 -1.55760e+03
  3030    113.766  5.15045e+02 -2.07267e+03 -1.55762e+03
  3040    113.623  5.14399e+02 -2.07228e+03 -1.55788e+03
  3050    113.975  5.15989e+02 -2.07383e+03 -1.55784e+03
  3060    114.819  5.19811e+02 -2.07745e+03 -1.55764e+03
  3070    115.950  5.24931e+02 -2.08255e+03 -1.55762e+03
  3080    117.107  5.30171e+02 -2.08749e+03 -1.55732e+03
  3090    118.098  5.34658e+02 -2.09204e+03 -1.55738e+03
  3100    118.806  5.37863e+02 -2.09517e+03 -1.55730e+03
  3110    119.142  5.39385e+02 -2.09635e+03 -1.55696e+03
  3120    119.026  5.38856e+02 -2.09590e+03 -1.55704e+03
  3130    118.391  5.35983e+02 -2.09323e+03 -1.55724e+03
  3140    117.252  5.30828e+02 -2.08807e+03 -1.55724e+03
  3150    115.761  5.24077e+02 -2.08144e+03 -1.55736e+03
  3160    114.215  5.17077e+02 -2.07450e+03 -1.55742e+03
  3170    112.952  5.11360e+02 -2.06888e+03 -1.55752e+03
  3180    112.167  5.07807e+02 -2.06517e+03 -1.55736e+03
  3190    111.803  5.06160e+02 -2.06328e+03 -1.55712e+03
  3200    111.660  5.05511e+02 -2.06279e+03 -1.55728e+03
  3210    111.576  5.05131e+02 -2.06249e+03 -1.55736e+03
  3220    111.543  5.04981e+02 -2.06220e+03 -1.55722e+03
  3230    111.692  5.05654e+02 -2.06255e+03 -1.55690e+03
  3240    112.184  5.07882e+02 -2.06484e+03 -1.55696e+03
  3250    113.099  5.12025e+02 -2.06894e+03 -1.55692e+03
  3260    114.367  5.17764e+02 -2.07466e+03 -1.55690e+03
  3270    115.774  5.24137e+02 -2.08108e+03 -1.55694e+03
  3280    117.068  5.29992e+02 -2.08703e+03 -1.55704e+03
  3290    118.089  5.34617e+02 -2.09182e+03 -1.55720e+03
  3300    118.823  5.37937e+02 -2.09514e+03 -1.55720e+03
  3310    119.308  5.40136e+02 -2.09756e+03 -1.55742e+03
  3320    119.620  5.41545e+02 -2.09909e+03 -1.55754e+03
  3330    119.907  5.42846e+02 -2.10039e+03 -1.55754e+03
  3340    120.379  5.44982e+02 -2.10248e+03 -1.55750e+03
  3350    121.137  5.48416e+02 -2.10588e+03 -1.55746e+03
  3360    121.999  5.52315e+02 -2.10974e+03 -1.55742e+03
  3370    122.544  5.54782e+02 -2.11229e+03 -1.55750e+03
  3380    122.423  5.54238e+02 -2.11176e+03 -1.55752e+03
  3390    121.586  5.50447e+02 -2.10833e+03 -1.55788e+03
  3400    120.246  5.44380e+02 -2.10218e+03 -1.55780e+03
  3410    118.761  5.37660e+02 -2.09546e+03 -1.55780e+03
  3420    117.502  5.31956e+02 -2.08986e+03 -1.55790e+03
  3430    116.731  5.28468e+02 -2.08641e+03 -1.55794e+03
  3440    116.520  5.27513e+02 -2.08532e+03 -1.55780e+03
  3450    116.692  5.28291e+02 -2.08607e+03 -1.55778e+03
  3460    116.967  5.29534e+02 -2.08750e+03 -1.55796e+03
  3470    117.198  5.30580e+02 -2.08838e+03 -1.55780e+03
  3480    117.395  5.31474e+02 -2.08946e+03 -1.55798e+03
