Step    T(K)    KE(kJ)    PE(kJ)    TotE(kJ)    P(MPa)
     0      0.104  4.70339e-01 -1.63104e+03 -1.63057e+03  1.97223e+02
    10      0.452  2.04755e+00 -1.63261e+03 -1.63056e+03  1.96915e+02
    20      1.347  6.10023e+00 -1.63659e+03 -1.63049e+03  1.96126e+02
    30      2.749  1.24453e+01 -1.64270e+03 -1.63025e+03  1.94899e+02
    40      4.604  2.08418e+01 -1.65050e+03 -1.62965e+03  1.93291e+02
    50      6.860  3.10579e+01 -1.65953e+03 -1.62848e+03  1.91372e+02
    60      9.483  4.29327e+01 -1.66938e+03 -1.62645e+03  1.89208e+02
    70     12.463  5.64212e+01 -1.67961e+03 -1.62318e+03  1.86865e+02
    80     15.819  7.16148e+01 -1.68986e+03 -1.61824e+03  1.84400e+02
    90     19.604  8.87508e+01 -1.69962e+03 -1.61087e+03  1.81874e+02
   100     23.891  1.08162e+02 -1.70950e+03 -1.60134e+03  1.79280e+02
   110     28.788  1.30330e+02 -1.71388e+03 -1.58355e+03  1.76990e+02
   120     34.414  1.55799e+02 -1.72206e+03 -1.56626e+03  1.74463e+02
   130     40.880  1.85072e+02 -1.73232e+03 -1.54725e+03  1.71831e+02
   140     48.319  2.18750e+02 -1.74155e+03 -1.52280e+03  1.69318e+02
   150     56.875  2.57486e+02 -1.74876e+03 -1.49127e+03  1.67023e+02
   160     66.690  3.01921e+02 -1.75669e+03 -1.45477e+03  1.64820e+02
   170     77.892  3.52633e+02 -1.76346e+03 -1.41083e+03  1.62866e+02
   180     90.599  4.10163e+02 -1.76695e+03 -1.35679e+03  1.61338e+02
   190    104.889  4.74858e+02 -1.77013e+03 -1.29527e+03  1.60095e+02
   200    120.775  5.46775e+02 -1.77142e+03 -1.22464e+03  1.59268e+02
   210    138.185  6.25594e+02 -1.77059e+03 -1.14500e+03  1.58893e+02
   220    156.930  7.10456e+02 -1.76728e+03 -1.05682e+03  1.58995e+02
   230    176.665  7.99804e+02 -1.76211e+03 -9.62309e+02  1.59510e+02
   240    196.858  8.91219e+02 -1.75509e+03 -8.63873e+02  1.60382e+02
   250    216.759  9.81316e+02 -1.74569e+03 -7.64377e+02  1.61550e+02
   260    235.411  1.06576e+03 -1.73256e+03 -6.66801e+02  1.62978e+02
   270    251.680  1.13941e+03 -1.71719e+03 -5.77783e+02  1.64432e+02
   280    264.355  1.19679e+03 -1.69859e+03 -5.01796e+02  1.65820e+02
   290    272.393  1.23318e+03 -1.67675e+03 -4.43562e+02  1.66980e+02
   300    275.320  1.24644e+03 -1.65143e+03 -4.04992e+02  1.67756e+02
   310    273.437  1.23791e+03 -1.62543e+03 -3.87512e+02  1.67804e+02
   320    267.446  1.21079e+03 -1.60311e+03 -3.92323e+02  1.66738e+02
   330    258.025  1.16814e+03 -1.58592e+03 -4.17781e+02  1.64473e+02
   340    245.947  1.11346e+03 -1.57414e+03 -4.60683e+02  1.61064e+02
   350    232.146  1.05098e+03 -1.56835e+03 -5.17376e+02  1.56597e+02
   360    217.352  9.84003e+02 -1.56917e+03 -5.85168e+02  1.51208e+02
   370    201.912  9.14101e+02 -1.57285e+03 -6.58753e+02  1.45354e+02
   380    186.020  8.42155e+02 -1.57791e+03 -7.35751e+02  1.39365e+02
   390    169.973  7.69507e+02 -1.58321e+03 -8.13700e+02  1.33504e+02
   400    154.202  6.98107e+02 -1.58797e+03 -8.89867e+02  1.27945e+02
   410    139.166  6.30037e+02 -1.59201e+03 -9.61970e+02  1.22765e+02
   420    125.246  5.67017e+02 -1.59646e+03 -1.02944e+03  1.17911e+02
   430    112.684  5.10146e+02 -1.60173e+03 -1.09158e+03  1.13350e+02
   440    101.582  4.59883e+02 -1.60791e+03 -1.14803e+03  1.09054e+02
   450     91.925  4.16166e+02 -1.61543e+03 -1.19927e+03  1.04967e+02
   460     83.627  3.78599e+02 -1.62368e+03 -1.24508e+03  1.01095e+02
   470     76.565  3.46629e+02 -1.63329e+03 -1.28666e+03  9.73658e+01
   480     70.617  3.19700e+02 -1.64356e+03 -1.32386e+03  9.37902e+01
   490     65.680  2.97350e+02 -1.65489e+03 -1.35754e+03  9.03078e+01
   500     61.675  2.79215e+02 -1.66763e+03 -1.38841e+03  8.68585e+01
   510     58.536  2.65007e+02 -1.68140e+03 -1.41640e+03  8.34294e+01
   520     56.204  2.54448e+02 -1.69643e+03 -1.44198e+03  7.99739e+01
   530     54.612  2.47241e+02 -1.71305e+03 -1.46581e+03  7.64450e+01
   540     53.687  2.43053e+02 -1.73076e+03 -1.48770e+03  7.28548e+01
   550     53.350  2.41527e+02 -1.74991e+03 -1.50839e+03  6.91713e+01
   560     53.520  2.42299e+02 -1.76987e+03 -1.52757e+03  6.54309e+01
   570     54.122  2.45023e+02 -1.79118e+03 -1.54616e+03  6.16008e+01
   580     55.087  2.49389e+02 -1.81309e+03 -1.56370e+03  5.77334e+01
   590     56.352  2.55118e+02 -1.83555e+03 -1.58043e+03  5.38385e+01
   600     57.863  2.61960e+02 -1.85864e+03 -1.59668e+03  4.99184e+01
   610     59.573  2.69699e+02 -1.88170e+03 -1.61200e+03  4.60236e+01
   620     61.434  2.78124e+02 -1.90481e+03 -1.62669e+03  4.21576e+01
   630     63.405  2.87048e+02 -1.92770e+03 -1.64065e+03  3.83474e+01
   640     65.453  2.96320e+02 -1.95013e+03 -1.65381e+03  3.46149e+01
   650     67.553  3.05828e+02 -1.97227e+03 -1.66644e+03  3.09585e+01
   660     69.674  3.15429e+02 -1.99411e+03 -1.67868e+03  2.73870e+01
   670     71.763  3.24887e+02 -2.01517e+03 -1.69028e+03  2.39438e+01
   680     73.752  3.33892e+02 -2.03499e+03 -1.70110e+03  2.06731e+01
   690     75.571  3.42127e+02 -2.05350e+03 -1.71137e+03  1.75967e+01
   700     77.160  3.49321e+02 -2.07046e+03 -1.72114e+03  1.47448e+01
   710     78.467  3.55239e+02 -2.08563e+03 -1.73039e+03  1.21439e+01
   720     79.465  3.59757e+02 -2.09867e+03 -1.73891e+03  9.82443e+00
   730     80.161  3.62908e+02 -2.10950e+03 -1.74659e+03  7.79084e+00
   740     80.599  3.64889e+02 -2.11853e+03 -1.75364e+03  6.01167e+00
   750     80.847  3.66012e+02 -2.12606e+03 -1.76005e+03  4.45460e+00
   760     80.995  3.66682e+02 -2.13221e+03 -1.76552e+03  3.09396e+00
   770     81.131  3.67298e+02 -2.13775e+03 -1.77045e+03  1.86248e+00
   780     81.314  3.68125e+02 -2.14275e+03 -1.77463e+03  7.39891e-01
   790     81.566  3.69268e+02 -2.14771e+03 -1.77844e+03 -3.13728e-01
   800     81.880  3.70690e+02 -2.15196e+03 -1.78127e+03 -1.26033e+00
   810     82.212  3.72194e+02 -2.15574e+03 -1.78355e+03 -2.11089e+00
   820     82.492  3.73458e+02 -2.15875e+03 -1.78529e+03 -2.83684e+00
   830     82.683  3.74324e+02 -2.16066e+03 -1.78634e+03 -3.41494e+00
   840     82.851  3.75083e+02 -2.16184e+03 -1.78676e+03 -3.87844e+00
   850     83.140  3.76392e+02 -2.16262e+03 -1.78623e+03 -4.27182e+00
   860     83.673  3.78806e+02 -2.16419e+03 -1.78538e+03 -4.68755e+00
   870     84.462  3.82377e+02 -2.16614e+03 -1.78376e+03 -5.10181e+00
   880     85.390  3.86578e+02 -2.16825e+03 -1.78167e+03 -5.48137e+00
   890     86.290  3.90654e+02 -2.16947e+03 -1.77882e+03 -5.73548e+00
   900     87.041  3.94055e+02 -2.16955e+03 -1.77550e+03 -5.82932e+00
   910     87.614  3.96649e+02 -2.16802e+03 -1.77137e+03 -5.73236e+00
   920     88.053  3.98635e+02 -2.16537e+03 -1.76673e+03 -5.48622e+00
   930     88.436  4.00369e+02 -2.16204e+03 -1.76167e+03 -5.13921e+00
   940     88.865  4.02314e+02 -2.15833e+03 -1.75601e+03 -4.73509e+00
   950     89.468  4.05043e+02 -2.15516e+03 -1.75012e+03 -4.35955e+00
   960     90.380  4.09173e+02 -2.15269e+03 -1.74352e+03 -4.04936e+00
   970     91.700  4.15148e+02 -2.15172e+03 -1.73657e+03 -3.87001e+00
   980     93.438  4.23015e+02 -2.15218e+03 -1.72917e+03 -3.81905e+00
   990     95.502  4.32357e+02 -2.15371e+03 -1.72136e+03 -3.85355e+00
  1000     97.724  4.42417e+02 -2.15550e+03 -1.71309e+03 -3.89232e+00
  1010     99.923  4.52372e+02 -2.15698e+03 -1.70461e+03 -3.86617e+00
  1020    101.957  4.61583e+02 -2.15778e+03 -1.69620e+03 -3.72753e+00
  1030    103.751  4.69705e+02 -2.15741e+03 -1.68771e+03 -3.43457e+00
  1040    105.299  4.76713e+02 -2.15583e+03 -1.67911e+03 -2.98509e+00
  1050    106.619  4.82687e+02 -2.15310e+03 -1.67041e+03 -2.39162e+00
  1060    107.690  4.87537e+02 -2.14948e+03 -1.66194e+03 -1.67470e+00
  1070    108.451  4.90980e+02 -2.14508e+03 -1.65410e+03 -8.42656e-01
  1080    108.879  4.92918e+02 -2.13919e+03 -1.64628e+03  1.36810e-01
  1090    109.069  4.93781e+02 -2.13275e+03 -1.63897e+03  1.17721e+00
  1100    109.232  4.94518e+02 -2.12671e+03 -1.63219e+03  2.17297e+00
  1110    109.548  4.95950e+02 -2.12190e+03 -1.62595e+03  3.03346e+00
  1120    110.028  4.98121e+02 -2.11825e+03 -1.62013e+03  3.75291e+00
  1130    110.532  5.00405e+02 -2.11489e+03 -1.61449e+03  4.39592e+00
  1140    110.921  5.02165e+02 -2.11179e+03 -1.60963e+03  4.98171e+00
  1150    111.129  5.03106e+02 -2.10845e+03 -1.60534e+03  5.54656e+00
  1160    111.169  5.03287e+02 -2.10487e+03 -1.60158e+03  6.08048e+00
  1170    111.142  5.03163e+02 -2.10152e+03 -1.59836e+03  6.53123e+00
  1180    111.239  5.03604e+02 -2.09928e+03 -1.59567e+03  6.81162e+00
  1190    111.607  5.05270e+02 -2.09890e+03 -1.59363e+03  6.85426e+00
  1200    112.172  5.07829e+02 -2.09956e+03 -1.59173e+03  6.72726e+00
  1210    112.699  5.10215e+02 -2.10107e+03 -1.59085e+03  6.49216e+00
  1220    112.961  5.11398e+02 -2.10178e+03 -1.59038e+03  6.29803e+00
  1230    112.824  5.10780e+02 -2.10184e+03 -1.59106e+03  6.17253e+00
  1240    112.253  5.08195e+02 -2.10023e+03 -1.59203e+03  6.19191e+00
  1250    111.280  5.03789e+02 -2.09718e+03 -1.59339e+03  6.34081e+00
  1260    109.984  4.97923e+02 -2.09354e+03 -1.59562e+03  6.55336e+00
  1270    108.506  4.91231e+02 -2.08924e+03 -1.59801e+03  6.80548e+00
  1280    107.039  4.84591e+02 -2.08528e+03 -1.60069e+03  6.99581e+00
  1290    105.778  4.78880e+02 -2.08309e+03 -1.60421e+03  6.99549e+00
  1300    104.888  4.74853e+02 -2.08267e+03 -1.60781e+03  6.76920e+00
  1310    104.473  4.72974e+02 -2.08448e+03 -1.61150e+03  6.26742e+00
  1320    104.475  4.72984e+02 -2.08854e+03 -1.61556e+03  5.49824e+00
  1330    104.670  4.73867e+02 -2.09341e+03 -1.61954e+03  4.58972e+00
  1340    104.824  4.74562e+02 -2.09807e+03 -1.62351e+03  3.64823e+00
  1350    104.820  4.74542e+02 -2.10250e+03 -1.62796e+03  2.70303e+00
  1360    104.655  4.73799e+02 -2.10626e+03 -1.63246e+03  1.79042e+00
  1370    104.409  4.72685e+02 -2.11022e+03 -1.63754e+03  8.50825e-01
  1380    104.148  4.71499e+02 -2.11435e+03 -1.64285e+03 -1.16167e-01
  1390    103.814  4.69989e+02 -2.11801e+03 -1.64802e+03 -1.05659e+00
  1400    103.278  4.67565e+02 -2.12137e+03 -1.65380e+03 -1.95287e+00
  1410    102.500  4.64042e+02 -2.12344e+03 -1.65940e+03 -2.72910e+00
  1420    101.567  4.59819e+02 -2.12469e+03 -1.66487e+03 -3.41735e+00
  1430    100.583  4.55362e+02 -2.12597e+03 -1.67060e+03 -4.07483e+00
  1440     99.555  4.50707e+02 -2.12687e+03 -1.67616e+03 -4.66976e+00
  1450     98.402  4.45487e+02 -2.12720e+03 -1.68171e+03 -5.17034e+00
  1460     97.053  4.39380e+02 -2.12650e+03 -1.68712e+03 -5.53067e+00
  1470     95.519  4.32437e+02 -2.12491e+03 -1.69247e+03 -5.75692e+00
  1480     93.900  4.25105e+02 -2.12233e+03 -1.69722e+03 -5.85637e+00
  1490     92.343  4.18057e+02 -2.11964e+03 -1.70159e+03 -5.90876e+00
  1500     90.997  4.11966e+02 -2.11771e+03 -1.70574e+03 -5.99383e+00
  1510     89.952  4.07231e+02 -2.11662e+03 -1.70939e+03 -6.13839e+00
  1520     89.213  4.03889e+02 -2.11654e+03 -1.71265e+03 -6.35938e+00
  1530     88.751  4.01794e+02 -2.11720e+03 -1.71541e+03 -6.64163e+00
  1540     88.556  4.00913e+02 -2.11870e+03 -1.71778e+03 -6.99283e+00
  1550     88.659  4.01381e+02 -2.12096e+03 -1.71957e+03 -7.41534e+00
  1560     89.083  4.03299e+02 -2.12423e+03 -1.72093e+03 -7.92550e+00
  1570     89.783  4.06466e+02 -2.12844e+03 -1.72198e+03 -8.50488e+00
  1580     90.634  4.10322e+02 -2.13295e+03 -1.72263e+03 -9.08595e+00
  1590     91.483  4.14165e+02 -2.13725e+03 -1.72308e+03 -9.60081e+00
  1600     92.197  4.17395e+02 -2.14049e+03 -1.72310e+03 -9.96537e+00
  1610     92.687  4.19617e+02 -2.14217e+03 -1.72256e+03 -1.01255e+01
  1620     92.910  4.20624e+02 -2.14243e+03 -1.72180e+03 -1.00771e+01
  1630     92.845  4.20328e+02 -2.14108e+03 -1.72075e+03 -9.80772e+00
  1640     92.501  4.18774e+02 -2.13838e+03 -1.71961e+03 -9.34140e+00
  1650     91.927  4.16174e+02 -2.13369e+03 -1.71752e+03 -8.65679e+00
  1660     91.213  4.12943e+02 -2.12845e+03 -1.71550e+03 -7.87284e+00
  1670     90.496  4.09697e+02 -2.12269e+03 -1.71300e+03 -7.03281e+00
  1680     89.941  4.07182e+02 -2.11752e+03 -1.71034e+03 -6.24743e+00
  1690     89.713  4.06150e+02 -2.11355e+03 -1.70740e+03 -5.59770e+00
  1700     89.942  4.07188e+02 -2.11106e+03 -1.70388e+03 -5.13362e+00
  1710     90.671  4.10486e+02 -2.11021e+03 -1.69972e+03 -4.87492e+00
  1720     91.816  4.15672e+02 -2.11104e+03 -1.69536e+03 -4.81192e+00
  1730     93.225  4.22050e+02 -2.11262e+03 -1.69057e+03 -4.85952e+00
  1740     94.752  4.28963e+02 -2.11440e+03 -1.68544e+03 -4.95121e+00
  1750     96.291  4.35931e+02 -2.11590e+03 -1.67996e+03 -5.03295e+00
  1760     97.769  4.42623e+02 -2.11688e+03 -1.67426e+03 -5.07279e+00
  1770     99.153  4.48886e+02 -2.11729e+03 -1.66840e+03 -5.05916e+00
  1780    100.472  4.54860e+02 -2.11698e+03 -1.66212e+03 -4.98960e+00
  1790    101.815  4.60938e+02 -2.11685e+03 -1.65592e+03 -4.93590e+00
  1800    103.277  4.67557e+02 -2.11739e+03 -1.64983e+03 -4.94487e+00
  1810    104.916  4.74977e+02 -2.11868e+03 -1.64370e+03 -5.03015e+00
  1820    106.708  4.83090e+02 -2.12082e+03 -1.63773e+03 -5.18810e+00
  1830    108.536  4.91369e+02 -2.12328e+03 -1.63191e+03 -5.35936e+00
  1840    110.215  4.98969e+02 -2.12523e+03 -1.62626e+03 -5.45201e+00
  1850    111.542  5.04974e+02 -2.12623e+03 -1.62126e+03 -5.39820e+00
  1860    112.347  5.08620e+02 -2.12579e+03 -1.61717e+03 -5.13422e+00
  1870    112.523  5.09419e+02 -2.12266e+03 -1.61324e+03 -4.56747e+00
  1880    112.059  5.07315e+02 -2.11728e+03 -1.60996e+03 -3.73067e+00
  1890    111.080  5.02885e+02 -2.11056e+03 -1.60767e+03 -2.71493e+00
  1900    109.871  4.97413e+02 -2.10293e+03 -1.60551e+03 -1.61393e+00
  1910    108.824  4.92669e+02 -2.09681e+03 -1.60414e+03 -6.61967e-01
  1920    108.303  4.90310e+02 -2.09373e+03 -1.60342e+03 -3.17788e-02
  1930    108.496  4.91188e+02 -2.09388e+03 -1.60269e+03  2.19519e-01
  1940    109.301  4.94832e+02 -2.09718e+03 -1.60235e+03  1.09176e-01
  1950    110.353  4.99594e+02 -2.10223e+03 -1.60264e+03 -2.17815e-01
  1960    111.200  5.03428e+02 -2.10706e+03 -1.60363e+03 -5.59766e-01
  1970    111.496  5.04769e+02 -2.10969e+03 -1.60492e+03 -7.32034e-01
  1980    111.143  5.03170e+02 -2.11025e+03 -1.60708e+03 -7.17644e-01
  1990    110.299  4.99347e+02 -2.10899e+03 -1.60964e+03 -5.51664e-01
  2000    109.241  4.94557e+02 -2.10700e+03 -1.61244e+03 -3.41510e-01
  2010    108.174  4.89729e+02 -2.10546e+03 -1.61573e+03 -1.89449e-01
  2020    107.161  4.85144e+02 -2.10445e+03 -1.61930e+03 -1.08444e-01
  2030    106.152  4.80574e+02 -2.10396e+03 -1.62338e+03 -8.75724e-02
  2040    105.057  4.75617e+02 -2.10343e+03 -1.62781e+03 -7.57904e-02
  2050    103.822  4.70025e+02 -2.10221e+03 -1.63219e+03 -2.29243e-02
  2060    102.463  4.63874e+02 -2.10053e+03 -1.63666e+03  5.40071e-02
  2070    101.084  4.57632e+02 -2.09877e+03 -1.64114e+03  1.12432e-01
  2080     99.856  4.52072e+02 -2.09778e+03 -1.64571e+03  6.92221e-02
  2090     98.939  4.47920e+02 -2.09804e+03 -1.65012e+03 -1.31771e-01
  2100     98.377  4.45376e+02 -2.09992e+03 -1.65454e+03 -5.18928e-01
  2110     98.058  4.43932e+02 -2.10271e+03 -1.65878e+03 -1.02479e+00
  2120     97.774  4.42646e+02 -2.10529e+03 -1.66264e+03 -1.53946e+00
  2130     97.347  4.40711e+02 -2.10741e+03 -1.66670e+03 -2.00941e+00
  2140     96.732  4.37926e+02 -2.10877e+03 -1.67084e+03 -2.40118e+00
  2150     96.012  4.34667e+02 -2.10932e+03 -1.67466e+03 -2.71848e+00
  2160     95.306  4.31474e+02 -2.10968e+03 -1.67821e+03 -3.01615e+00
  2170     94.700  4.28728e+02 -2.11031e+03 -1.68158e+03 -3.33839e+00
  2180     94.244  4.26663e+02 -2.11121e+03 -1.68455e+03 -3.69585e+00
  2190     93.990  4.25512e+02 -2.11281e+03 -1.68730e+03 -4.12393e+00
  2200     93.978  4.25458e+02 -2.11550e+03 -1.69004e+03 -4.65289e+00
  2210     94.202  4.26472e+02 -2.11897e+03 -1.69249e+03 -5.25956e+00
  2220     94.595  4.28251e+02 -2.12273e+03 -1.69448e+03 -5.89939e+00
  2230     95.034  4.30240e+02 -2.12662e+03 -1.69638e+03 -6.53615e+00
  2240     95.383  4.31819e+02 -2.12967e+03 -1.69785e+03 -7.08306e+00
  2250     95.547  4.32562e+02 -2.13190e+03 -1.69934e+03 -7.52160e+00
  2260     95.504  4.32367e+02 -2.13274e+03 -1.70037e+03 -7.80919e+00
  2270     95.290  4.31400e+02 -2.13270e+03 -1.70130e+03 -7.98248e+00
  2280     94.975  4.29971e+02 -2.13214e+03 -1.70217e+03 -8.07355e+00
  2290     94.645  4.28478e+02 -2.13118e+03 -1.70271e+03 -8.10626e+00
  2300     94.402  4.27380e+02 -2.13057e+03 -1.70319e+03 -8.14322e+00
  2310     94.351  4.27150e+02 -2.13052e+03 -1.70337e+03 -8.21491e+00
  2320     94.567  4.28124e+02 -2.13120e+03 -1.70307e+03 -8.34045e+00
  2330     95.049  4.30308e+02 -2.13308e+03 -1.70277e+03 -8.54643e+00
  2340     95.711  4.33306e+02 -2.13578e+03 -1.70248e+03 -8.78819e+00
  2350     96.401  4.36427e+02 -2.13835e+03 -1.70193e+03 -8.97659e+00
  2360     96.952  4.38923e+02 -2.14017e+03 -1.70125e+03 -9.04082e+00
  2370     97.233  4.40197e+02 -2.14030e+03 -1.70011e+03 -8.89890e+00
  2380     97.173  4.39922e+02 -2.13850e+03 -1.69858e+03 -8.52407e+00
  2390     96.761  4.38060e+02 -2.13556e+03 -1.69750e+03 -7.96992e+00
  2400     96.060  4.34886e+02 -2.13083e+03 -1.69594e+03 -7.21621e+00
  2410     95.199  4.30987e+02 -2.12541e+03 -1.69443e+03 -6.36542e+00
  2420     94.349  4.27141e+02 -2.11995e+03 -1.69281e+03 -5.50015e+00
  2430     93.670  4.24065e+02 -2.11500e+03 -1.69093e+03 -4.69425e+00
  2440     93.260  4.22208e+02 -2.11100e+03 -1.68879e+03 -4.00446e+00
  2450     93.154  4.21731e+02 -2.10806e+03 -1.68633e+03 -3.45208e+00
  2460     93.365  4.22685e+02 -2.10638e+03 -1.68369e+03 -3.05544e+00
  2470     93.909  4.25148e+02 -2.10547e+03 -1.68032e+03 -2.78646e+00
  2480     94.809  4.29220e+02 -2.10624e+03 -1.67702e+03 -2.69931e+00
  2490     96.066  4.34913e+02 -2.10837e+03 -1.67346e+03 -2.76604e+00
  2500     97.637  4.42024e+02 -2.11155e+03 -1.66953e+03 -2.95028e+00
  2510     99.419  4.50092e+02 -2.11563e+03 -1.66554e+03 -3.21595e+00
  2520    101.267  4.58458e+02 -2.11986e+03 -1.66140e+03 -3.48453e+00
  2530    103.018  4.66388e+02 -2.12331e+03 -1.65692e+03 -3.66554e+00
  2540    104.525  4.73210e+02 -2.12576e+03 -1.65255e+03 -3.71665e+00
  2550    105.689  4.78479e+02 -2.12691e+03 -1.64843e+03 -3.60224e+00
  2560    106.475  4.82037e+02 -2.12686e+03 -1.64482e+03 -3.32503e+00
  2570    106.886  4.83899e+02 -2.12516e+03 -1.64126e+03 -2.86325e+00
  2580    106.936  4.84122e+02 -2.12229e+03 -1.63816e+03 -2.25635e+00
  2590    106.662  4.82883e+02 -2.11844e+03 -1.63556e+03 -1.53336e+00
  2600    106.168  4.80647e+02 -2.11350e+03 -1.63286e+03 -7.14441e-01
  2610    105.638  4.78246e+02 -2.10897e+03 -1.63072e+03  7.04533e-02
  2620    105.280  4.76626e+02 -2.10536e+03 -1.62874e+03  7.47652e-01
  2630    105.254  4.76507e+02 -2.10335e+03 -1.62685e+03  1.24699e+00
  2640    105.609  4.78117e+02 -2.10382e+03 -1.62570e+03  1.50497e+00
  2650    106.249  4.81013e+02 -2.10561e+03 -1.62460e+03  1.61035e+00
  2660    106.928  4.84088e+02 -2.10791e+03 -1.62383e+03  1.65705e+00
  2670    107.351  4.86000e+02 -2.10946e+03 -1.62346e+03  1.77491e+00
  2680    107.311  4.85821e+02 -2.10910e+03 -1.62328e+03  2.06835e+00
  2690    106.791  4.83468e+02 -2.10710e+03 -1.62363e+03  2.52276e+00
  2700    105.932  4.79576e+02 -2.10347e+03 -1.62390e+03  3.10657e+00
  2710    104.937  4.75074e+02 -2.10003e+03 -1.62496e+03  3.66292e+00
  2720    104.010  4.70876e+02 -2.09678e+03 -1.62591e+03  4.14222e+00
  2730    103.357  4.67919e+02 -2.09501e+03 -1.62709e+03  4.41656e+00
  2740    103.174  4.67090e+02 -2.09551e+03 -1.62842e+03  4.39836e+00
  2750    103.488  4.68515e+02 -2.09838e+03 -1.62986e+03  4.07904e+00
  2760    104.045  4.71036e+02 -2.10223e+03 -1.63119e+03  3.59155e+00
  2770    104.465  4.72936e+02 -2.10557e+03 -1.63263e+03  3.10037e+00
  2780    104.503  4.73109e+02 -2.10790e+03 -1.63479e+03  2.69150e+00
  2790    104.125  4.71396e+02 -2.10852e+03 -1.63712e+03  2.42552e+00
  2800    103.437  4.68284e+02 -2.10762e+03 -1.63933e+03  2.28219e+00
  2810    102.607  4.64526e+02 -2.10621e+03 -1.64168e+03  2.17569e+00
  2820    101.811  4.60923e+02 -2.10529e+03 -1.64437e+03  2.01713e+00
  2830    101.190  4.58110e+02 -2.10492e+03 -1.64681e+03  1.78190e+00
