Step    T(K)      KE(kJ)        PE(kJ)       TotE(kJ)
     0      0.151  6.84625e-01 -1.63103e+03 -1.63034e+03
    10      0.241  1.08930e+00 -1.63143e+03 -1.63034e+03
    20      0.469  2.12450e+00 -1.63246e+03 -1.63033e+03
    30      0.834  3.77783e+00 -1.63409e+03 -1.63031e+03
    40      1.332  6.02993e+00 -1.63630e+03 -1.63027e+03
    50      1.956  8.85601e+00 -1.63904e+03 -1.63018e+03
    60      2.701  1.22276e+01 -1.64226e+03 -1.63004e+03
    70      3.560  1.61147e+01 -1.64592e+03 -1.62980e+03
    80      4.525  2.04878e+01 -1.64995e+03 -1.62946e+03
    90      5.593  2.53202e+01 -1.65429e+03 -1.62897e+03
   100      6.757  3.05896e+01 -1.65889e+03 -1.62831e+03
   110      8.014  3.62799e+01 -1.66371e+03 -1.62743e+03
   120      9.362  4.23822e+01 -1.66869e+03 -1.62631e+03
   130     10.800  4.88961e+01 -1.67380e+03 -1.62490e+03
   140     12.332  5.58304e+01 -1.67888e+03 -1.62305e+03
   150     13.960  6.32022e+01 -1.68414e+03 -1.62094e+03
   160     15.691  7.10372e+01 -1.68918e+03 -1.61814e+03
   170     17.533  7.93751e+01 -1.69393e+03 -1.61456e+03
   180     19.495  8.82569e+01 -1.69900e+03 -1.61074e+03
   190     21.587  9.77304e+01 -1.70425e+03 -1.60652e+03
   200     23.824  1.07855e+02 -1.70861e+03 -1.60076e+03
   210     26.221  1.18707e+02 -1.71153e+03 -1.59282e+03
   220     28.797  1.30368e+02 -1.71349e+03 -1.58312e+03
   230     31.568  1.42916e+02 -1.71687e+03 -1.57396e+03
   240     34.552  1.56424e+02 -1.72162e+03 -1.56520e+03
   250     37.766  1.70975e+02 -1.72677e+03 -1.55580e+03
   260     41.232  1.86667e+02 -1.73163e+03 -1.54496e+03
   270     44.974  2.03606e+02 -1.73651e+03 -1.53291e+03
   280     49.016  2.21905e+02 -1.74096e+03 -1.51905e+03
   290     53.385  2.41686e+02 -1.74481e+03 -1.50313e+03
   300     58.111  2.63081e+02 -1.74834e+03 -1.48526e+03
   310     63.223  2.86224e+02 -1.75223e+03 -1.46600e+03
   320     68.751  3.11251e+02 -1.75625e+03 -1.44500e+03
   330     74.728  3.38308e+02 -1.75989e+03 -1.42159e+03
   340     81.188  3.67555e+02 -1.76284e+03 -1.39528e+03
   350     88.168  3.99154e+02 -1.76486e+03 -1.36570e+03
   360     95.704  4.33274e+02 -1.76654e+03 -1.33326e+03
   370    103.833  4.70077e+02 -1.76818e+03 -1.29811e+03
   380    112.592  5.09728e+02 -1.76963e+03 -1.25991e+03
   390    122.014  5.52387e+02 -1.77040e+03 -1.21802e+03
   400    132.135  5.98207e+02 -1.77089e+03 -1.17268e+03
   410    142.987  6.47333e+02 -1.77050e+03 -1.12316e+03
   420    154.596  6.99890e+02 -1.76976e+03 -1.06987e+03
   430    166.985  7.55977e+02 -1.76855e+03 -1.01258e+03
   440    180.168  8.15662e+02 -1.76639e+03 -9.50729e+02
   450    194.151  8.78967e+02 -1.76359e+03 -8.84619e+02
   460    208.925  9.45852e+02 -1.76032e+03 -8.14471e+02
   470    224.465  1.01620e+03 -1.75665e+03 -7.40443e+02
   480    240.726  1.08982e+03 -1.75217e+03 -6.62353e+02
   490    257.640  1.16639e+03 -1.74666e+03 -5.80265e+02
   500    275.110  1.24548e+03 -1.74030e+03 -4.94814e+02
   510    293.007  1.32651e+03 -1.73277e+03 -4.06264e+02
   520    311.165  1.40872e+03 -1.72457e+03 -3.15853e+02
   530    329.380  1.49118e+03 -1.71524e+03 -2.24065e+02
   540    347.406  1.57278e+03 -1.70495e+03 -1.32163e+02
   550    364.964  1.65227e+03 -1.69284e+03 -4.05614e+01
   560    381.763  1.72833e+03 -1.67932e+03  4.90077e+01
   570    397.524  1.79968e+03 -1.66396e+03  1.35718e+02
   580    412.020  1.86531e+03 -1.64704e+03  2.18266e+02
   590    425.097  1.92451e+03 -1.62878e+03  2.95728e+02
   600    436.674  1.97692e+03 -1.61000e+03  3.66918e+02
   610    446.692  2.02227e+03 -1.59251e+03  4.29764e+02
   620    455.053  2.06013e+03 -1.57692e+03  4.83211e+02
   630    461.606  2.08979e+03 -1.56329e+03  5.26500e+02
   640    466.200  2.11059e+03 -1.55152e+03  5.59066e+02
   650    468.753  2.12215e+03 -1.54180e+03  5.80357e+02
   660    469.277  2.12452e+03 -1.53428e+03  5.90246e+02
   670    467.833  2.11798e+03 -1.52863e+03  5.89351e+02
   680    464.486  2.10283e+03 -1.52558e+03  5.77253e+02
   690    459.275  2.07924e+03 -1.52504e+03  5.54199e+02
   700    452.219  2.04730e+03 -1.52657e+03  5.20729e+02
   710    443.337  2.00709e+03 -1.52958e+03  4.77506e+02
   720    432.682  1.95885e+03 -1.53325e+03  4.25601e+02
   730    420.359  1.90306e+03 -1.53681e+03  3.66255e+02
   740    406.532  1.84046e+03 -1.54027e+03  3.00194e+02
   750    391.421  1.77205e+03 -1.54363e+03  2.28420e+02
   760    375.283  1.69899e+03 -1.54627e+03  1.52722e+02
   770    358.396  1.62254e+03 -1.54849e+03  7.40454e+01
   780    341.036  1.54395e+03 -1.55029e+03 -6.34135e+00
   790    323.465  1.46440e+03 -1.55190e+03 -8.75017e+01
   800    305.923  1.38498e+03 -1.55357e+03 -1.68593e+02
   810    288.621  1.30665e+03 -1.55525e+03 -2.48599e+02
   820    271.739  1.23023e+03 -1.55722e+03 -3.27000e+02
   830    255.424  1.15636e+03 -1.55975e+03 -4.03386e+02
   840    239.785  1.08556e+03 -1.56251e+03 -4.76953e+02
   850    224.901  1.01818e+03 -1.56567e+03 -5.47492e+02
   860    210.821  9.54435e+02 -1.56923e+03 -6.14796e+02
   870    197.567  8.94431e+02 -1.57343e+03 -6.79003e+02
   880    185.139  8.38168e+02 -1.57797e+03 -7.39798e+02
   890    173.523  7.85576e+02 -1.58286e+03 -7.97286e+02
   900    162.691  7.36540e+02 -1.58795e+03 -8.51413e+02
   910    152.612  6.90908e+02 -1.59309e+03 -9.02180e+02
   920    143.249  6.48522e+02 -1.59860e+03 -9.50074e+02
   930    134.568  6.09222e+02 -1.60426e+03 -9.95038e+02
   940    126.536  5.72856e+02 -1.60991e+03 -1.03705e+03
   950    119.121  5.39286e+02 -1.61578e+03 -1.07650e+03
   960    112.299  5.08402e+02 -1.62172e+03 -1.11332e+03
   970    106.053  4.80125e+02 -1.62806e+03 -1.14793e+03
   980    100.371  4.54404e+02 -1.63465e+03 -1.18024e+03
   990     95.246  4.31199e+02 -1.64155e+03 -1.21035e+03
  1000     90.665  4.10460e+02 -1.64913e+03 -1.23867e+03
  1010     86.609  3.92096e+02 -1.65742e+03 -1.26532e+03
  1020     83.046  3.75967e+02 -1.66628e+03 -1.29031e+03
  1030     79.933  3.61875e+02 -1.67580e+03 -1.31393e+03
  1040     77.221  3.49596e+02 -1.68576e+03 -1.33617e+03
  1050     74.857  3.38896e+02 -1.69612e+03 -1.35723e+03
  1060     72.794  3.29556e+02 -1.70715e+03 -1.37759e+03
  1070     70.990  3.21388e+02 -1.71826e+03 -1.39687e+03
  1080     69.409  3.14231e+02 -1.72955e+03 -1.41532e+03
  1090     68.022  3.07953e+02 -1.74079e+03 -1.43284e+03
  1100     66.807  3.02452e+02 -1.75215e+03 -1.44969e+03
  1110     65.745  2.97643e+02 -1.76353e+03 -1.46589e+03
  1120     64.822  2.93462e+02 -1.77501e+03 -1.48155e+03
  1130     64.025  2.89857e+02 -1.78628e+03 -1.49643e+03
  1140     63.347  2.86788e+02 -1.79737e+03 -1.51059e+03
  1150     62.781  2.84225e+02 -1.80878e+03 -1.52455e+03
  1160     62.321  2.82139e+02 -1.81993e+03 -1.53779e+03
  1170     61.962  2.80515e+02 -1.83103e+03 -1.55052e+03
  1180     61.701  2.79335e+02 -1.84220e+03 -1.56287e+03
  1190     61.537  2.78591e+02 -1.85330e+03 -1.57471e+03
  1200     61.467  2.78275e+02 -1.86439e+03 -1.58611e+03
  1210     61.490  2.78379e+02 -1.87536e+03 -1.59698e+03
  1220     61.606  2.78902e+02 -1.88635e+03 -1.60745e+03
  1230     61.812  2.79835e+02 -1.89761e+03 -1.61777e+03
  1240     62.106  2.81169e+02 -1.90863e+03 -1.62746e+03
  1250     62.486  2.82886e+02 -1.91968e+03 -1.63679e+03
  1260     62.943  2.84959e+02 -1.93075e+03 -1.64579e+03
  1270     63.472  2.87351e+02 -1.94186e+03 -1.65451e+03
  1280     64.060  2.90015e+02 -1.95284e+03 -1.66282e+03
  1290     64.697  2.92898e+02 -1.96376e+03 -1.67086e+03
  1300     65.369  2.95942e+02 -1.97452e+03 -1.67858e+03
  1310     66.064  2.99087e+02 -1.98504e+03 -1.68595e+03
  1320     66.767  3.02268e+02 -1.99530e+03 -1.69303e+03
  1330     67.464  3.05424e+02 -2.00524e+03 -1.69982e+03
  1340     68.142  3.08494e+02 -2.01468e+03 -1.70619e+03
  1350     68.788  3.11419e+02 -2.02347e+03 -1.71205e+03
  1360     69.390  3.14146e+02 -2.03164e+03 -1.71749e+03
  1370     69.940  3.16632e+02 -2.03944e+03 -1.72281e+03
  1380     70.430  3.18851e+02 -2.04648e+03 -1.72762e+03
  1390     70.859  3.20795e+02 -2.05272e+03 -1.73192e+03
  1400     71.231  3.22480e+02 -2.05832e+03 -1.73584e+03
  1410     71.557  3.23955e+02 -2.06345e+03 -1.73950e+03
  1420     71.854  3.25299e+02 -2.06800e+03 -1.74270e+03
  1430     72.145  3.26616e+02 -2.07203e+03 -1.74541e+03
  1440     72.457  3.28030e+02 -2.07586e+03 -1.74783e+03
  1450     72.818  3.29664e+02 -2.07951e+03 -1.74985e+03
  1460     73.253  3.31634e+02 -2.08295e+03 -1.75131e+03
  1470     73.781  3.34025e+02 -2.08629e+03 -1.75226e+03
  1480     74.414  3.36890e+02 -2.08990e+03 -1.75301e+03
  1490     75.157  3.40251e+02 -2.09347e+03 -1.75322e+03
  1500     76.008  3.44104e+02 -2.09719e+03 -1.75309e+03
  1510     76.962  3.48424e+02 -2.10075e+03 -1.75232e+03
  1520     78.012  3.53177e+02 -2.10450e+03 -1.75132e+03
  1530     79.148  3.58320e+02 -2.10810e+03 -1.74978e+03
  1540     80.361  3.63812e+02 -2.11161e+03 -1.74780e+03
  1550     81.640  3.69602e+02 -2.11509e+03 -1.74549e+03
  1560     82.973  3.75637e+02 -2.11817e+03 -1.74254e+03
  1570     84.346  3.81854e+02 -2.12107e+03 -1.73921e+03
  1580     85.745  3.88187e+02 -2.12347e+03 -1.73529e+03
  1590     87.153  3.94559e+02 -2.12544e+03 -1.73088e+03
  1600     88.554  4.00903e+02 -2.12703e+03 -1.72613e+03
  1610     89.938  4.07168e+02 -2.12813e+03 -1.72096e+03
  1620     91.299  4.13330e+02 -2.12839e+03 -1.71506e+03
  1630     92.639  4.19398e+02 -2.12811e+03 -1.70871e+03
  1640     93.969  4.25421e+02 -2.12746e+03 -1.70204e+03
  1650     95.307  4.31478e+02 -2.12617e+03 -1.69469e+03
  1660     96.676  4.37674e+02 -2.12474e+03 -1.68707e+03
  1670     98.101  4.44127e+02 -2.12280e+03 -1.67867e+03
  1680     99.610  4.50958e+02 -2.12067e+03 -1.66971e+03
  1690    101.228  4.58282e+02 -2.11887e+03 -1.66058e+03
  1700    102.979  4.66207e+02 -2.11687e+03 -1.65066e+03
  1710    104.883  4.74830e+02 -2.11495e+03 -1.64012e+03
  1720    106.960  4.84230e+02 -2.11332e+03 -1.62909e+03
  1730    109.225  4.94485e+02 -2.11196e+03 -1.61747e+03
  1740    111.692  5.05655e+02 -2.11097e+03 -1.60532e+03
  1750    114.373  5.17793e+02 -2.11040e+03 -1.59261e+03
  1760    117.273  5.30922e+02 -2.11026e+03 -1.57934e+03
  1770    120.392  5.45042e+02 -2.11055e+03 -1.56551e+03
  1780    123.721  5.60113e+02 -2.11100e+03 -1.55088e+03
  1790    127.243  5.76056e+02 -2.11159e+03 -1.53554e+03
  1800    130.929  5.92745e+02 -2.11229e+03 -1.51955e+03
  1810    134.743  6.10011e+02 -2.11271e+03 -1.50270e+03
  1820    138.639  6.27652e+02 -2.11312e+03 -1.48547e+03
  1830    142.571  6.45449e+02 -2.11312e+03 -1.46767e+03
  1840    146.488  6.63184e+02 -2.11229e+03 -1.44910e+03
  1850    150.348  6.80657e+02 -2.11059e+03 -1.42994e+03
  1860    154.117  6.97724e+02 -2.10827e+03 -1.41054e+03
  1870    157.784  7.14326e+02 -2.10487e+03 -1.39054e+03
  1880    161.358  7.30506e+02 -2.10082e+03 -1.37031e+03
  1890    164.866  7.46388e+02 -2.09598e+03 -1.34959e+03
  1900    168.335  7.62092e+02 -2.09062e+03 -1.32853e+03
  1910    171.769  7.77639e+02 -2.08503e+03 -1.30739e+03
  1920    175.132  7.92862e+02 -2.07904e+03 -1.28618e+03
  1930    178.350  8.07432e+02 -2.07209e+03 -1.26466e+03
  1940    181.333  8.20935e+02 -2.06449e+03 -1.24356e+03
  1950    183.998  8.32999e+02 -2.05540e+03 -1.22240e+03
  1960    186.297  8.43407e+02 -2.04491e+03 -1.20150e+03
  1970    188.231  8.52166e+02 -2.03301e+03 -1.18084e+03
  1980    189.857  8.59527e+02 -2.02007e+03 -1.16054e+03
  1990    191.277  8.65954e+02 -2.00649e+03 -1.14053e+03
  2000    192.618  8.72023e+02 -1.99294e+03 -1.12091e+03
  2010    193.997  8.78269e+02 -1.98009e+03 -1.10182e+03
  2020    195.496  8.85054e+02 -1.96834e+03 -1.08329e+03
  2030    197.139  8.92493e+02 -1.95747e+03 -1.06498e+03
  2040    198.905  9.00486e+02 -1.94806e+03 -1.04758e+03
  2050    200.742  9.08803e+02 -1.93935e+03 -1.03055e+03
  2060    202.597  9.17203e+02 -1.93134e+03 -1.01414e+03
  2070    204.433  9.25513e+02 -1.92383e+03 -9.98319e+02
  2080    206.237  9.33682e+02 -1.91701e+03 -9.83325e+02
  2090    208.022  9.41764e+02 -1.91098e+03 -9.69218e+02
  2100    209.814  9.49874e+02 -1.90561e+03 -9.55740e+02
  2110    211.631  9.58101e+02 -1.90132e+03 -9.43217e+02
  2120    213.474  9.66444e+02 -1.89810e+03 -9.31652e+02
  2130    215.312  9.74764e+02 -1.89573e+03 -9.20970e+02
  2140    217.080  9.82770e+02 -1.89399e+03 -9.11221e+02
  2150    218.687  9.90046e+02 -1.89236e+03 -9.02315e+02
  2160    220.029  9.96121e+02 -1.89099e+03 -8.94866e+02
  2170    221.010  1.00056e+03 -1.88878e+03 -8.88216e+02
  2180    221.563  1.00306e+03 -1.88603e+03 -8.82968e+02
  2190    221.663  1.00352e+03 -1.88236e+03 -8.78844e+02
  2200    221.338  1.00205e+03 -1.87780e+03 -8.75758e+02
  2210    220.657  9.98963e+02 -1.87305e+03 -8.74086e+02
  2220    219.717  9.94707e+02 -1.86822e+03 -8.73511e+02
  2230    218.619  9.89737e+02 -1.86389e+03 -8.74150e+02
  2240    217.446  9.84428e+02 -1.86052e+03 -8.76093e+02
  2250    216.252  9.79021e+02 -1.85809e+03 -8.79068e+02
  2260    215.057  9.73613e+02 -1.85670e+03 -8.83085e+02
  2270    213.856  9.68174e+02 -1.85612e+03 -8.87949e+02
  2280    212.618  9.62572e+02 -1.85618e+03 -8.93611e+02
  2290    211.293  9.56569e+02 -1.85683e+03 -9.00257e+02
  2300    209.808  9.49847e+02 -1.85782e+03 -9.07971e+02
  2310    208.094  9.42086e+02 -1.85877e+03 -9.16686e+02
  2320    206.111  9.33110e+02 -1.85918e+03 -9.26070e+02
  2330    203.884  9.23029e+02 -1.85939e+03 -9.36363e+02
  2340    201.515  9.12305e+02 -1.85947e+03 -9.47163e+02
  2350    199.164  9.01659e+02 -1.86041e+03 -9.58751e+02
  2360    196.984  8.91792e+02 -1.86289e+03 -9.71103e+02
  2370    195.050  8.83037e+02 -1.86690e+03 -9.83860e+02
  2380    193.310  8.75157e+02 -1.87241e+03 -9.97258e+02
  2390    191.611  8.67464e+02 -1.87849e+03 -1.01103e+03
  2400    189.778  8.59168e+02 -1.88451e+03 -1.02534e+03
  2410    187.691  8.49717e+02 -1.88972e+03 -1.04000e+03
  2420    185.314  8.38960e+02 -1.89385e+03 -1.05489e+03
  2430    182.694  8.27097e+02 -1.89753e+03 -1.07043e+03
  2440    179.918  8.14528e+02 -1.90039e+03 -1.08587e+03
  2450    177.084  8.01698e+02 -1.90304e+03 -1.10134e+03
  2460    174.277  7.88989e+02 -1.90624e+03 -1.11725e+03
  2470    171.555  7.76670e+02 -1.90999e+03 -1.13332e+03
  2480    168.951  7.64880e+02 -1.91413e+03 -1.14924e+03
  2490    166.469  7.53641e+02 -1.91877e+03 -1.16513e+03
  2500    164.093  7.42884e+02 -1.92393e+03 -1.18105e+03
  2510    161.795  7.32483e+02 -1.92943e+03 -1.19695e+03
  2520    159.544  7.22293e+02 -1.93497e+03 -1.21268e+03
  2530    157.315  7.12198e+02 -1.94047e+03 -1.22828e+03
  2540    155.091  7.02132e+02 -1.94613e+03 -1.24400e+03
  2550    152.870  6.92079e+02 -1.95116e+03 -1.25908e+03
  2560    150.656  6.82053e+02 -1.95618e+03 -1.27413e+03
  2570    148.449  6.72064e+02 -1.96109e+03 -1.28903e+03
  2580    146.244  6.62081e+02 -1.96590e+03 -1.30382e+03
  2590    144.022  6.52018e+02 -1.97036e+03 -1.31834e+03
  2600    141.752  6.41744e+02 -1.97429e+03 -1.33254e+03
  2610    139.405  6.31119e+02 -1.97723e+03 -1.34611e+03
  2620    136.963  6.20062e+02 -1.97981e+03 -1.35975e+03
  2630    134.429  6.08592e+02 -1.98136e+03 -1.37277e+03
  2640    131.838  5.96859e+02 -1.98235e+03 -1.38549e+03
  2650    129.246  5.85124e+02 -1.98282e+03 -1.39770e+03
  2660    126.728  5.73727e+02 -1.98321e+03 -1.40948e+03
  2670    124.364  5.63022e+02 -1.98396e+03 -1.42094e+03
  2680    122.222  5.53327e+02 -1.98527e+03 -1.43194e+03
  2690    120.355  5.44876e+02 -1.98719e+03 -1.44232e+03
  2700    118.791  5.37791e+02 -1.99042e+03 -1.45262e+03
  2710    117.532  5.32094e+02 -1.99436e+03 -1.46227e+03
  2720    116.564  5.27711e+02 -1.99919e+03 -1.47148e+03
  2730    115.853  5.24495e+02 -2.00478e+03 -1.48028e+03
  2740    115.356  5.22242e+02 -2.01108e+03 -1.48884e+03
  2750    115.020  5.20719e+02 -2.01755e+03 -1.49683e+03
  2760    114.792  5.19689e+02 -2.02472e+03 -1.50504e+03
  2770    114.625  5.18935e+02 -2.03174e+03 -1.51280e+03
  2780    114.480  5.18278e+02 -2.03837e+03 -1.52009e+03
  2790    114.329  5.17595e+02 -2.04465e+03 -1.52706e+03
  2800    114.160  5.16828e+02 -2.05074e+03 -1.53391e+03
  2810    113.970  5.15968e+02 -2.05613e+03 -1.54016e+03
  2820    113.766  5.15042e+02 -2.06122e+03 -1.54617e+03
  2830    113.557  5.14096e+02 -2.06614e+03 -1.55204e+03
  2840    113.351  5.13167e+02 -2.07073e+03 -1.55757e+03
  2850    113.154  5.12272e+02 -2.07488e+03 -1.56261e+03
  2860    112.959  5.11391e+02 -2.07861e+03 -1.56722e+03
  2870    112.758  5.10481e+02 -2.08217e+03 -1.57169e+03
  2880    112.539  5.09489e+02 -2.08508e+03 -1.57560e+03
  2890    112.290  5.08360e+02 -2.08759e+03 -1.57923e+03
  2900    112.002  5.07056e+02 -2.08974e+03 -1.58268e+03
  2910    111.671  5.05562e+02 -2.09130e+03 -1.58574e+03
  2920    111.301  5.03885e+02 -2.09255e+03 -1.58866e+03
  2930    110.896  5.02053e+02 -2.09306e+03 -1.59101e+03
  2940    110.468  5.00112e+02 -2.09311e+03 -1.59300e+03
  2950    110.026  4.98113e+02 -2.09293e+03 -1.59481e+03
  2960    109.583  4.96109e+02 -2.09234e+03 -1.59623e+03
  2970    109.152  4.94155e+02 -2.09166e+03 -1.59750e+03
  2980    108.744  4.92308e+02 -2.09066e+03 -1.59836e+03
  2990    108.373  4.90628e+02 -2.08945e+03 -1.59883e+03
  3000    108.054  4.89185e+02 -2.08812e+03 -1.59894e+03
  3010    107.805  4.88056e+02 -2.08668e+03 -1.59862e+03
  3020    107.646  4.87340e+02 -2.08536e+03 -1.59802e+03
  3030    107.602  4.87140e+02 -2.08434e+03 -1.59720e+03
  3040    107.697  4.87567e+02 -2.08342e+03 -1.59585e+03
  3050    107.950  4.88715e+02 -2.08280e+03 -1.59408e+03
  3060    108.377  4.90647e+02 -2.08264e+03 -1.59200e+03
  3070    108.980  4.93378e+02 -2.08296e+03 -1.58958e+03
  3080    109.750  4.96864e+02 -2.08383e+03 -1.58697e+03
  3090    110.668  5.01020e+02 -2.08482e+03 -1.58380e+03
  3100    111.709  5.05731e+02 -2.08611e+03 -1.58037e+03
  3110    112.846  5.10878e+02 -2.08741e+03 -1.57653e+03
  3120    114.052  5.16339e+02 -2.08872e+03 -1.57238e+03
  3130    115.304  5.22008e+02 -2.09003e+03 -1.56802e+03
  3140    116.582  5.27792e+02 -2.09074e+03 -1.56295e+03
  3150    117.867  5.33611e+02 -2.09149e+03 -1.55788e+03
  3160    119.147  5.39406e+02 -2.09173e+03 -1.55233e+03
  3170    120.412  5.45133e+02 -2.09151e+03 -1.54637e+03
  3180    121.657  5.50769e+02 -2.09106e+03 -1.54029e+03
  3190    122.881  5.56311e+02 -2.08982e+03 -1.53351e+03
  3200    124.088  5.61776e+02 -2.08830e+03 -1.52652e+03
  3210    125.285  5.67195e+02 -2.08671e+03 -1.51952e+03
  3220    126.483  5.72617e+02 -2.08444e+03 -1.51183e+03
  3230    127.696  5.78107e+02 -2.08237e+03 -1.50426e+03
  3240    128.942  5.83748e+02 -2.07973e+03 -1.49598e+03
  3250    130.242  5.89634e+02 -2.07720e+03 -1.48757e+03
  3260    131.617  5.95861e+02 -2.07478e+03 -1.47892e+03
  3270    133.088  6.02517e+02 -2.07253e+03 -1.47001e+03
  3280    134.667  6.09669e+02 -2.07045e+03 -1.46078e+03
  3290    136.361  6.17336e+02 -2.06860e+03 -1.45127e+03
  3300    138.159  6.25475e+02 -2.06702e+03 -1.44155e+03
  3310    140.039  6.33989e+02 -2.06556e+03 -1.43157e+03
  3320    141.976  6.42756e+02 -2.06404e+03 -1.42129e+03
  3330    143.945  6.51673e+02 -2.06251e+03 -1.41083e+03
  3340    145.936  6.60685e+02 -2.06089e+03 -1.40021e+03
  3350    147.945  6.69782e+02 -2.05903e+03 -1.38925e+03
  3360    149.978  6.78984e+02 -2.05695e+03 -1.37797e+03
  3370    152.036  6.88301e+02 -2.05490e+03 -1.36660e+03
  3380    154.117  6.97722e+02 -2.05310e+03 -1.35538e+03
  3390    156.212  7.07207e+02 -2.05116e+03 -1.34395e+03
  3400    158.310  7.16703e+02 -2.04900e+03 -1.33230e+03
  3410    160.395  7.26146e+02 -2.04680e+03 -1.32065e+03
  3420    162.457  7.35481e+02 -2.04430e+03 -1.30882e+03
  3430    164.486  7.44664e+02 -2.04185e+03 -1.29719e+03
  3440    166.471  7.53653e+02 -2.03897e+03 -1.28532e+03
  3450    168.400  7.62386e+02 -2.03606e+03 -1.27367e+03
  3460    170.252  7.70768e+02 -2.03308e+03 -1.26231e+03
  3470    171.995  7.78662e+02 -2.02939e+03 -1.25073e+03
  3480    173.597  7.85914e+02 -2.02535e+03 -1.23944e+03
